% Langmuir characteristic curve

% U (Volt)	I (A)
60.000000	-2.853340E-7
60.009998	-2.345769E-7
60.014999	-4.206086E-7
60.025002	-4.925532E-7
60.029999	-3.064051E-7
60.040001	-4.374888E-7
60.044998	-3.064051E-7
60.055000	-3.613532E-7
60.060001	-3.825407E-7
60.070000	-4.840549E-7
60.075001	-4.925532E-7
60.084999	-4.164176E-7
60.090000	-3.486639E-7
60.099998	-2.768356E-7
60.105000	-2.599554E-7
60.115002	-3.444729E-7
60.119999	-4.121102E-7
60.130001	-4.121102E-7
60.134998	-3.656605E-7
60.145000	-3.232853E-7
60.150002	-1.795124E-7
60.160000	-3.783498E-7
60.165001	-5.009351E-7
60.174999	-3.022142E-7
60.180000	-3.910391E-7
60.189999	-3.232853E-7
60.195000	-3.105961E-7
60.205002	-2.472661E-7
60.209999	-2.472661E-7
60.220001	-2.514571E-7
60.224998	-3.105961E-7
60.235001	-1.372537E-7
60.240002	-2.937159E-7
60.250000	-3.994210E-7
60.255001	-3.064051E-7
60.264999	-2.937159E-7
60.270000	-3.275927E-7
60.279999	-3.740424E-7
60.285000	-4.671747E-7
60.294998	-3.402820E-7
60.299999	-3.656605E-7
60.310001	-3.740424E-7
60.314999	-1.626322E-7
60.325001	-3.359746E-7
60.330002	-2.429588E-7
60.340000	-5.601905E-7
60.345001	-5.094334E-7
60.355000	-2.387678E-7
60.360001	-3.317837E-7
60.369999	-3.529713E-7
60.375000	-4.079193E-7
60.384998	-1.880107E-7
60.389999	-4.291069E-7
60.400002	-4.037283E-7
60.404999	-3.867317E-7
60.415001	-3.105961E-7
60.419998	-3.656605E-7
60.430000	-3.022142E-7
60.435001	-2.599554E-7
60.445000	-3.740424E-7
60.450001	-3.613532E-7
60.459999	-3.740424E-7
60.465000	-3.825407E-7
60.474998	-3.529713E-7
60.480000	-3.529713E-7
60.490002	-2.641464E-7
60.494999	-2.937159E-7
60.505001	-5.179318E-7
60.509998	-4.925532E-7
60.520000	-1.795124E-7
60.525002	-3.698515E-7
60.535000	-3.444729E-7
60.540001	-3.529713E-7
60.549999	-2.429588E-7
60.555000	-4.164176E-7
60.564999	-1.880107E-7
60.570000	-4.121102E-7
60.580002	-2.514571E-7
60.584999	-2.937159E-7
60.595001	-3.402820E-7
60.599998	-3.825407E-7
60.610001	-3.740424E-7
60.615002	-2.937159E-7
60.625000	-1.838198E-7
60.630001	-2.853340E-7
60.639999	-3.105961E-7
60.645000	-4.586764E-7
60.654999	-3.613532E-7
60.660000	-2.472661E-7
60.669998	-5.433103E-7
60.674999	-3.402820E-7
60.685001	-1.203734E-7
60.689999	-3.275927E-7
60.700001	-3.444729E-7
60.705002	-3.317837E-7
60.715000	-4.628673E-7
60.720001	-3.190944E-7
60.730000	-4.755566E-7
60.735001	-3.105961E-7
60.744999	-3.571622E-7
60.750000	-3.783498E-7
60.759998	-3.486639E-7
60.764999	-1.457520E-7
60.775002	-3.444729E-7
60.779999	-4.671747E-7
60.790001	-2.683373E-7
60.794998	-2.810266E-7
60.805000	-2.429588E-7
60.810001	-4.247995E-7
60.820000	-2.726447E-7
60.825001	-4.247995E-7
60.834999	-3.359746E-7
60.840000	-3.952300E-7
60.849998	-4.079193E-7
60.855000	-4.713656E-7
60.865002	-3.910391E-7
60.869999	-3.190944E-7
60.880001	-2.302695E-7
60.884998	-2.683373E-7
60.895000	-4.206086E-7
60.900002	-3.402820E-7
60.910000	-2.683373E-7
60.915001	-2.683373E-7
60.924999	-3.022142E-7
60.930000	-3.571622E-7
60.939999	-3.994210E-7
60.945000	-3.740424E-7
60.955002	-4.164176E-7
60.959999	-3.317837E-7
60.970001	-4.798640E-7
60.974998	-5.221227E-7
60.985001	-1.626322E-7
60.990002	-4.417961E-7
61.000000	-4.459871E-7
61.005001	-1.203734E-7
61.014999	-2.429588E-7
61.020000	-3.149034E-7
61.029999	-2.979068E-7
61.035000	-2.853340E-7
61.044998	-4.247995E-7
61.049999	-4.628673E-7
61.060001	-4.206086E-7
61.064999	-3.529713E-7
61.075001	-3.232853E-7
61.080002	-2.853340E-7
61.090000	-4.840549E-7
61.095001	-3.232853E-7
61.105000	-2.472661E-7
61.110001	-1.330627E-7
61.119999	-3.190944E-7
61.125000	-2.810266E-7
61.134998	-2.726447E-7
61.139999	-2.345769E-7
61.150002	-2.048910E-7
61.154999	-3.064051E-7
61.165001	-4.164176E-7
61.169998	-1.838198E-7
61.180000	-3.232853E-7
61.185001	-3.529713E-7
61.195000	-3.317837E-7
61.200001	-3.064051E-7
61.209999	-3.952300E-7
61.215000	-3.867317E-7
61.224998	-3.232853E-7
61.230000	-2.514571E-7
61.240002	-2.599554E-7
61.244999	-2.091983E-7
61.255001	-1.118751E-7
61.259998	-3.910391E-7
61.270000	-2.556480E-7
61.275002	-3.952300E-7
61.285000	-3.444729E-7
61.290001	-3.105961E-7
61.299999	-4.798640E-7
61.305000	-3.952300E-7
61.314999	-2.683373E-7
61.320000	-2.937159E-7
61.330002	-3.571622E-7
61.334999	-1.457520E-7
61.345001	-3.232853E-7
61.349998	-2.895249E-7
61.360001	-3.486639E-7
61.365002	-2.175802E-7
61.375000	-3.529713E-7
61.380001	-3.022142E-7
61.389999	-2.853340E-7
61.395000	-3.317837E-7
61.404999	-3.698515E-7
61.410000	-3.402820E-7
61.419998	-1.711305E-7
61.424999	-3.190944E-7
61.435001	-3.064051E-7
61.439999	-3.486639E-7
61.450001	-3.064051E-7
61.455002	-4.459871E-7
61.465000	-3.105961E-7
61.470001	-2.853340E-7
61.480000	-3.022142E-7
61.485001	-3.064051E-7
61.494999	-2.979068E-7
61.500000	-2.979068E-7
61.509998	-3.910391E-7
61.514999	-3.571622E-7
61.525002	-4.501780E-7
61.529999	-3.613532E-7
61.540001	-3.359746E-7
61.544998	-3.064051E-7
61.555000	-1.457520E-7
61.560001	-3.613532E-7
61.570000	-3.232853E-7
61.575001	-2.514571E-7
61.584999	-2.853340E-7
61.590000	-3.190944E-7
61.599998	-2.979068E-7
61.605000	-2.387678E-7
61.615002	-3.105961E-7
61.619999	-2.768356E-7
61.630001	-3.571622E-7
61.634998	-2.472661E-7
61.645000	-3.444729E-7
61.650002	-3.190944E-7
61.660000	-4.671747E-7
61.665001	-2.937159E-7
61.674999	-3.232853E-7
61.680000	-2.472661E-7
61.689999	-3.064051E-7
61.695000	-3.783498E-7
61.705002	-2.514571E-7
61.709999	-1.033768E-7
61.720001	-2.429588E-7
61.724998	-2.768356E-7
61.735001	-3.232853E-7
61.740002	-3.105961E-7
61.750000	-3.825407E-7
61.755001	-3.571622E-7
61.764999	-2.683373E-7
61.770000	-1.795124E-7
61.779999	-3.698515E-7
61.785000	-4.247995E-7
61.794998	-3.402820E-7
61.799999	-2.599554E-7
61.810001	-2.133893E-7
61.814999	-2.556480E-7
61.825001	-2.979068E-7
61.830002	-2.937159E-7
61.840000	-2.683373E-7
61.845001	-3.613532E-7
61.855000	-1.584413E-7
61.860001	-2.979068E-7
61.869999	-3.149034E-7
61.875000	-3.064051E-7
61.884998	-3.825407E-7
61.889999	-3.740424E-7
61.900002	-1.965091E-7
61.904999	-2.853340E-7
61.915001	-2.641464E-7
61.919998	-3.064051E-7
61.930000	-5.728798E-7
61.935001	-1.160661E-7
61.945000	-4.037283E-7
61.950001	-2.429588E-7
61.959999	-3.317837E-7
61.965000	-2.895249E-7
61.974998	-2.810266E-7
61.980000	-3.105961E-7
61.990002	-3.105961E-7
61.994999	-4.671747E-7
62.005001	-2.726447E-7
62.009998	-2.260786E-7
62.020000	-1.160661E-7
62.025002	-3.317837E-7
62.035000	-3.064051E-7
62.040001	-2.429588E-7
62.049999	-1.965091E-7
62.055000	-2.175802E-7
62.064999	-3.444729E-7
62.070000	-4.037283E-7
62.080002	-3.149034E-7
62.084999	-2.091983E-7
62.095001	-2.895249E-7
62.099998	-3.444729E-7
62.110001	-3.149034E-7
62.115002	-3.105961E-7
62.125000	-3.994210E-7
62.130001	-2.429588E-7
62.139999	-2.175802E-7
62.145000	-3.529713E-7
62.154999	-2.302695E-7
62.160000	-3.740424E-7
62.169998	-3.656605E-7
62.174999	-1.287553E-7
62.185001	-2.810266E-7
62.189999	-3.022142E-7
62.200001	-4.247995E-7
62.205002	-3.444729E-7
62.215000	-2.937159E-7
62.220001	-3.529713E-7
62.230000	-3.190944E-7
62.235001	-2.979068E-7
62.244999	-2.853340E-7
62.250000	-2.260786E-7
62.259998	-3.571622E-7
62.264999	-2.937159E-7
62.275002	-3.656605E-7
62.279999	-2.556480E-7
62.290001	-2.599554E-7
62.294998	-2.556480E-7
62.305000	-4.291069E-7
62.310001	-2.048910E-7
62.320000	-4.628673E-7
62.325001	-4.882459E-7
62.334999	-4.628673E-7
62.340000	-2.853340E-7
62.349998	-3.232853E-7
62.355000	-2.726447E-7
62.365002	-2.218876E-7
62.369999	-2.895249E-7
62.380001	-1.965091E-7
62.384998	-2.726447E-7
62.395000	-1.076842E-7
62.400002	-3.444729E-7
62.410000	-2.387678E-7
62.415001	-4.291069E-7
62.424999	-3.275927E-7
62.430000	-3.910391E-7
62.439999	-4.164176E-7
62.445000	-4.671747E-7
62.455002	-1.541339E-7
62.459999	-3.064051E-7
62.470001	-3.190944E-7
62.474998	-3.275927E-7
62.485001	-3.867317E-7
62.490002	-2.599554E-7
62.500000	-2.810266E-7
62.505001	-2.895249E-7
62.514999	-2.260786E-7
62.520000	-3.783498E-7
62.529999	-2.599554E-7
62.535000	-4.374888E-7
62.544998	-3.613532E-7
62.549999	-4.374888E-7
62.560001	-1.499429E-7
62.564999	-2.895249E-7
62.575001	-2.979068E-7
62.580002	-2.345769E-7
62.590000	-2.007000E-7
62.595001	-3.656605E-7
62.605000	-2.302695E-7
62.610001	-2.810266E-7
62.619999	-2.218876E-7
62.625000	-1.287553E-7
62.634998	-3.190944E-7
62.639999	-3.275927E-7
62.650002	-3.064051E-7
62.654999	-2.768356E-7
62.665001	-1.795124E-7
62.669998	-2.937159E-7
62.680000	-2.810266E-7
62.685001	-2.895249E-7
62.695000	-2.218876E-7
62.700001	-2.726447E-7
62.709999	-2.133893E-7
62.715000	-4.121102E-7
62.724998	-2.472661E-7
62.730000	-2.007000E-7
62.740002	-2.810266E-7
62.744999	-2.260786E-7
62.755001	-2.472661E-7
62.759998	-3.359746E-7
62.770000	-3.825407E-7
62.775002	-1.584413E-7
62.785000	-3.910391E-7
62.790001	-2.937159E-7
62.799999	-3.486639E-7
62.805000	-2.895249E-7
62.814999	-2.726447E-7
62.820000	-4.121102E-7
62.830002	-3.994210E-7
62.834999	-3.698515E-7
62.845001	-4.501780E-7
62.849998	-4.121102E-7
62.860001	-3.994210E-7
62.865002	-2.810266E-7
62.875000	-3.529713E-7
62.880001	-2.979068E-7
62.889999	-2.853340E-7
62.895000	-3.529713E-7
62.904999	-2.937159E-7
62.910000	-3.064051E-7
62.919998	-3.064051E-7
62.924999	-5.263137E-7
62.935001	-2.429588E-7
62.939999	-3.190944E-7
62.950001	-2.429588E-7
62.955002	-2.133893E-7
62.965000	-3.064051E-7
62.970001	-2.853340E-7
62.980000	-2.937159E-7
62.985001	-4.586764E-7
62.994999	-3.317837E-7
63.000000	-3.486639E-7
63.009998	-3.105961E-7
63.014999	-4.586764E-7
63.025002	-3.402820E-7
63.029999	-3.402820E-7
63.040001	-2.895249E-7
63.044998	-2.641464E-7
63.055000	-1.965091E-7
63.060001	-2.726447E-7
63.070000	-2.218876E-7
63.075001	-3.022142E-7
63.084999	-1.965091E-7
63.090000	-3.105961E-7
63.099998	-3.022142E-7
63.105000	-3.698515E-7
63.115002	-3.232853E-7
63.119999	-3.656605E-7
63.130001	-3.190944E-7
63.134998	-3.571622E-7
63.145000	-2.895249E-7
63.150002	-3.105961E-7
63.160000	-2.429588E-7
63.165001	-2.937159E-7
63.174999	-2.218876E-7
63.180000	-3.064051E-7
63.189999	-2.514571E-7
63.195000	-3.698515E-7
63.205002	-3.149034E-7
63.209999	-5.136244E-7
63.220001	-3.359746E-7
63.224998	-4.332978E-7
63.235001	-3.275927E-7
63.240002	-1.711305E-7
63.250000	-2.302695E-7
63.255001	-1.245644E-7
63.264999	-2.937159E-7
63.270000	-1.880107E-7
63.279999	-2.175802E-7
63.285000	-2.726447E-7
63.294998	-3.149034E-7
63.299999	-2.472661E-7
63.310001	-3.529713E-7
63.314999	-2.937159E-7
63.325001	-2.387678E-7
63.330002	-3.275927E-7
63.340000	-4.501780E-7
63.345001	-3.022142E-7
63.355000	-2.768356E-7
63.360001	-3.064051E-7
63.369999	-3.402820E-7
63.375000	-1.118751E-7
63.384998	-3.022142E-7
63.389999	-2.387678E-7
63.400002	-2.175802E-7
63.404999	-3.105961E-7
63.415001	-9.918585E-8
63.419998	-1.922017E-7
63.430000	-2.979068E-7
63.435001	-1.245644E-7
63.445000	-3.571622E-7
63.450001	-3.149034E-7
63.459999	-3.656605E-7
63.465000	-3.275927E-7
63.474998	-3.232853E-7
63.480000	-6.024493E-7
63.490002	-3.952300E-7
63.494999	-9.499490E-8
63.505001	-2.979068E-7
63.509998	-1.838198E-7
63.520000	-2.007000E-7
63.525002	-2.472661E-7
63.535000	-2.514571E-7
63.540001	-3.656605E-7
63.549999	-2.768356E-7
63.555000	-5.728798E-7
63.564999	-2.937159E-7
63.570000	-2.556480E-7
63.580002	-1.626322E-7
63.584999	-2.726447E-7
63.595001	-2.853340E-7
63.599998	-2.429588E-7
63.610001	-3.783498E-7
63.615002	-2.768356E-7
63.625000	-3.105961E-7
63.630001	-2.768356E-7
63.639999	-2.260786E-7
63.645000	-1.753215E-7
63.654999	-2.979068E-7
63.660000	-1.203734E-7
63.669998	-6.109476E-7
63.674999	-3.232853E-7
63.685001	-1.457520E-7
63.689999	-3.656605E-7
63.700001	-3.149034E-7
63.705002	-3.275927E-7
63.715000	-2.133893E-7
63.720001	-3.571622E-7
63.730000	-1.795124E-7
63.735001	-2.472661E-7
63.744999	-6.530900E-8
63.750000	-2.175802E-7
63.759998	-3.022142E-7
63.764999	-3.613532E-7
63.775002	-2.979068E-7
63.779999	-3.232853E-7
63.790001	-5.221227E-7
63.794998	-4.206086E-7
63.805000	-2.429588E-7
63.810001	-3.064051E-7
63.820000	-1.245644E-7
63.825001	-3.022142E-7
63.834999	-2.091983E-7
63.840000	-3.149034E-7
63.849998	-2.048910E-7
63.855000	-2.133893E-7
63.865002	-8.649658E-8
63.869999	-2.514571E-7
63.880001	-9.499490E-8
63.884998	-2.599554E-7
63.895000	-2.641464E-7
63.900002	-2.260786E-7
63.910000	-3.064051E-7
63.915001	-2.302695E-7
63.924999	-3.064051E-7
63.930000	-2.472661E-7
63.939999	-4.206086E-7
63.945000	-3.064051E-7
63.955002	-3.571622E-7
63.959999	-2.895249E-7
63.970001	-2.260786E-7
63.974998	-2.556480E-7
63.985001	-2.048910E-7
63.990002	-2.472661E-7
64.000000	-2.007000E-7
64.004997	-2.345769E-7
64.014999	-1.033768E-7
64.019997	-2.302695E-7
64.029999	-3.105961E-7
64.035004	-2.387678E-7
64.044998	-5.052425E-7
64.050003	-2.472661E-7
64.059998	-2.133893E-7
64.065002	-2.387678E-7
64.074997	-3.571622E-7
64.080002	-3.571622E-7
64.089996	-3.698515E-7
64.095001	-5.692709E-8
64.105003	-3.698515E-7
64.110001	-2.853340E-7
64.120003	-2.091983E-7
64.125000	-4.417961E-7
64.135002	-3.867317E-7
64.139999	-2.556480E-7
64.150002	-2.810266E-7
64.154999	-3.444729E-7
64.165001	-2.937159E-7
64.169998	-4.121102E-7
64.180000	-6.961636E-8
64.184998	-2.175802E-7
64.195000	-1.711305E-7
64.199997	-3.698515E-7
64.209999	-2.683373E-7
64.214996	-2.726447E-7
64.224998	-2.641464E-7
64.230003	-2.175802E-7
64.239998	-1.203734E-7
64.245003	-2.218876E-7
64.254997	-2.260786E-7
64.260002	-2.133893E-7
64.269997	-2.514571E-7
64.275002	-2.895249E-7
64.285004	-2.429588E-7
64.290001	-1.838198E-7
64.300003	-2.345769E-7
64.305000	-1.330627E-7
64.315002	-2.937159E-7
64.320000	-6.111804E-8
64.330002	-3.740424E-7
64.334999	-2.641464E-7
64.345001	-3.698515E-7
64.349998	-3.064051E-7
64.360001	-3.444729E-7
64.364998	-4.291069E-7
64.375000	-3.317837E-7
64.379997	-2.683373E-7
64.389999	-2.218876E-7
64.394997	-2.048910E-7
64.404999	-4.079193E-7
64.410004	-2.345769E-7
64.419998	-5.261973E-8
64.425003	-2.472661E-7
64.434998	-2.429588E-7
64.440002	-4.671747E-7
64.449997	-2.979068E-7
64.455002	-3.910391E-7
64.464996	-5.643815E-7
64.470001	-2.599554E-7
64.480003	-3.529713E-7
64.485001	-2.853340E-7
64.495003	-2.853340E-7
64.500000	-1.160661E-7
64.510002	-4.037283E-7
64.514999	-3.402820E-7
64.525002	-1.626322E-7
64.529999	-3.359746E-7
64.540001	-1.711305E-7
64.544998	-2.895249E-7
64.555000	-1.711305E-7
64.559998	-1.668232E-7
64.570000	-2.007000E-7
64.574997	-2.895249E-7
64.584999	-2.260786E-7
64.589996	-2.556480E-7
64.599998	-2.260786E-7
64.605003	-3.486639E-7
64.614998	-2.726447E-7
64.620003	-2.387678E-7
64.629997	-1.795124E-7
64.635002	-2.302695E-7
64.644997	-2.726447E-7
64.650002	-2.683373E-7
64.660004	-1.922017E-7
64.669998	-2.599554E-7
64.675003	-1.753215E-7
64.684998	-1.838198E-7
64.690002	-2.345769E-7
64.699997	-3.613532E-7
64.705002	-3.698515E-7
64.714996	-2.937159E-7
64.720001	-3.190944E-7
64.730003	-2.133893E-7
64.735001	-2.979068E-7
64.745003	-2.895249E-7
64.750000	-2.133893E-7
64.760002	-2.472661E-7
64.764999	-1.626322E-7
64.775002	-1.753215E-7
64.779999	-2.387678E-7
64.790001	-1.414446E-7
64.794998	-2.218876E-7
64.805000	-2.472661E-7
64.809998	-3.656605E-7
64.820000	-3.149034E-7
64.824997	-2.979068E-7
64.834999	-2.133893E-7
64.839996	-2.345769E-7
64.849998	-2.345769E-7
64.855003	-2.514571E-7
64.864998	-3.359746E-7
64.870003	-4.417961E-7
64.879997	-1.880107E-7
64.885002	-2.175802E-7
64.894997	-1.922017E-7
64.900002	-3.402820E-7
64.910004	-2.302695E-7
64.915001	-2.260786E-7
64.925003	-3.783498E-7
64.930000	-1.711305E-7
64.940002	-2.218876E-7
64.945000	-2.260786E-7
64.955002	-2.218876E-7
64.959999	-2.726447E-7
64.970001	-7.380731E-8
64.974998	-1.922017E-7
64.985001	-1.885928E-8
64.989998	-1.838198E-7
65.000000	-1.922017E-7
65.004997	-3.698515E-7
65.014999	-2.937159E-7
65.019997	-2.768356E-7
65.029999	-3.064051E-7
65.035004	-2.387678E-7
65.044998	-2.853340E-7
65.050003	-1.541339E-7
65.059998	-4.628673E-7
65.065002	-2.683373E-7
65.074997	-4.121102E-7
65.080002	-1.330627E-7
65.089996	-3.105961E-7
65.095001	-7.799827E-8
65.105003	-3.190944E-7
65.110001	-1.668232E-7
65.120003	-1.922017E-7
65.125000	-1.862645E-9
65.135002	-3.190944E-7
65.139999	-1.885928E-8
65.150002	-2.302695E-7
65.154999	-2.810266E-7
65.165001	-2.345769E-7
65.169998	-2.133893E-7
65.180000	-1.965091E-7
65.184998	-1.499429E-7
65.195000	-2.387678E-7
65.199997	-1.922017E-7
65.209999	-1.626322E-7
65.214996	-1.711305E-7
65.224998	1.501758E-8
65.230003	-3.275927E-7
65.239998	-1.457520E-7
65.245003	-1.922017E-7
65.254997	-3.154855E-8
65.260002	-4.423782E-8
65.269997	-1.584413E-7
65.275002	-3.105961E-7
65.285004	-2.091983E-7
65.290001	-2.048910E-7
65.300003	-2.218876E-7
65.305000	-1.862645E-9
65.315002	-1.668232E-7
65.320000	-1.033768E-7
65.330002	-2.218876E-7
65.334999	-6.961636E-8
65.345001	-9.499490E-8
65.349998	-2.514571E-7
65.360001	-1.033768E-7
65.364998	-8.230563E-8
65.375000	-1.287553E-7
65.379997	-7.380731E-8
65.389999	-6.170012E-9
65.394997	-1.965091E-7
65.404999	-1.330627E-7
65.410004	-2.726447E-7
65.419998	-2.556480E-7
65.425003	-6.961636E-8
65.434998	-4.423782E-8
65.440002	-1.160661E-7
65.449997	-4.423782E-8
65.455002	-2.175802E-7
65.464996	-8.230563E-8
65.470001	-2.260786E-7
65.480003	-1.287553E-7
65.485001	-2.007000E-7
65.495003	-1.626322E-7
65.500000	-9.068754E-8
65.510002	-2.302695E-7
65.514999	-1.965091E-7
65.525002	-1.838198E-7
65.529999	-2.007000E-7
65.540001	-1.499429E-7
65.544998	-4.842877E-8
65.555000	-1.885928E-8
65.559998	-6.530900E-8
65.570000	-1.457520E-7
65.574997	6.146729E-8
65.584999	-1.499429E-7
65.589996	-2.683373E-7
65.599998	1.501758E-8
65.605003	1.207227E-7
65.614998	-7.799827E-8
65.620003	-1.541339E-7
65.629997	-1.626322E-7
65.635002	-1.414446E-7
65.644997	6.146729E-8
65.650002	-1.245644E-7
65.660004	5.727634E-8
65.665001	-2.599554E-7
65.675003	6.996561E-8
65.680000	1.165317E-7
65.690002	1.501758E-8
65.695000	8.265488E-8
65.705002	2.391171E-7
65.709999	-6.111804E-8
65.720001	3.189780E-8
65.724998	8.684583E-8
65.735001	3.189780E-8
65.739998	6.146729E-8
65.750000	7.415656E-8
65.754997	1.502922E-7
65.764999	2.771849E-7
65.769997	1.122244E-7
65.779999	2.222368E-7
65.785004	2.095476E-7
65.794998	1.714798E-7
65.800003	2.351590E-8
65.809998	1.841690E-7
65.815002	7.846393E-8
65.824997	6.577466E-8
65.830002	1.419103E-7
65.839996	1.756707E-7
65.845001	3.533205E-7
65.855003	3.786990E-7
65.860001	1.038425E-7
65.870003	1.968583E-7
65.875000	2.898742E-7
65.885002	2.686866E-7
65.889999	2.813758E-7
65.900002	1.926674E-7
65.904999	3.448222E-7
65.915001	3.871974E-7
65.919998	4.294561E-7
65.930000	3.194436E-7
65.934998	3.533205E-7
65.945000	4.885951E-7
65.949997	2.180459E-7
65.959999	3.575115E-7
65.964996	4.378380E-7
65.974998	5.393522E-7
65.980003	4.548347E-7
65.989998	3.406312E-7
65.995003	3.152527E-7
66.004997	5.266629E-7
66.010002	4.717149E-7
66.019997	4.675239E-7
66.025002	7.043127E-7
66.035004	5.055917E-7
66.040001	5.520415E-7
66.050003	4.844042E-7
66.055000	5.859183E-7
66.065002	7.255003E-7
66.070000	6.196788E-7
66.080002	6.069895E-7
66.084999	6.535556E-7
66.095001	5.732290E-7
66.099998	6.662449E-7
66.110001	6.027985E-7
66.114998	6.577466E-7
66.125000	8.692732E-7
66.129997	8.185161E-7
66.139999	8.988427E-7
66.144997	1.038425E-6
66.154999	8.734642E-7
66.160004	8.480856E-7
66.169998	8.692732E-7
66.175003	9.791693E-7
66.184998	1.072185E-6
66.190002	8.353963E-7
66.199997	1.004548E-6
66.205002	9.833602E-7
66.214996	1.101871E-6
66.220001	1.114560E-6
66.230003	1.152512E-6
66.235001	1.182198E-6
66.245003	1.393608E-6
66.250000	1.237146E-6
66.260002	1.203269E-6
66.264999	1.173699E-6
66.275002	1.309090E-6
66.279999	1.309090E-6
66.290001	1.380919E-6
66.294998	1.448556E-6
66.305000	1.376728E-6
66.309998	1.507811E-6
66.320000	1.461245E-6
66.324997	1.512002E-6
66.334999	1.638895E-6
66.339996	1.715031E-6
66.349998	1.630397E-6
66.355003	1.799548E-6
66.364998	1.808046E-6
66.370003	1.782668E-6
66.379997	1.968700E-6
66.385002	1.964509E-6
66.394997	2.167537E-6
66.400002	1.968700E-6
66.410004	1.926441E-6
66.415001	2.116780E-6
66.425003	1.998385E-6
66.430000	2.205605E-6
66.440002	2.142158E-6
66.445000	2.281624E-6
66.455002	2.319692E-6
66.459999	2.340879E-6
66.470001	2.569286E-6
66.474998	2.556597E-6
66.485001	2.645305E-6
66.489998	2.670684E-6
66.500000	2.725748E-6
66.504997	2.780696E-6
66.514999	2.793386E-6
66.519997	2.861023E-6
66.529999	2.987916E-6
66.535004	2.755318E-6
66.544998	3.123190E-6
66.550003	3.199326E-6
66.559998	3.258581E-6
66.565002	3.296649E-6
66.574997	3.478490E-6
66.580002	3.524940E-6
66.589996	3.478490E-6
66.595001	3.647641E-6
66.605003	3.808294E-6
66.610001	3.998633E-6
66.620003	3.888621E-6
66.625000	3.782916E-6
66.635002	3.897119E-6
66.639999	4.049274E-6
66.650002	4.201545E-6
66.654999	4.412956E-6
66.665001	4.307250E-6
66.669998	4.468020E-6
66.680000	4.594796E-6
66.684998	4.700618E-6
66.695000	4.903530E-6
66.699997	4.950096E-6
66.709999	5.271519E-6
66.714996	5.144626E-6
66.724998	5.436363E-6
66.730003	5.288399E-6
66.739998	5.436363E-6
66.745003	5.533686E-6
66.754997	5.677459E-6
66.760002	5.715527E-6
66.769997	5.922746E-6
66.775002	6.074901E-6
66.785004	6.163726E-6
66.790001	6.315997E-6
66.800003	6.345566E-6
66.805000	6.768503E-6
66.815002	6.819260E-6
66.820000	6.798073E-6
66.830002	6.929156E-6
66.834999	6.853021E-6
66.845001	7.301336E-6
66.849998	7.259077E-6
66.860001	7.516937E-6
66.864998	7.546623E-6
66.875000	7.779221E-6
66.879997	8.003321E-6
66.889999	8.109026E-6
66.894997	8.447329E-6
66.904999	8.531963E-6
66.910004	8.620671E-6
66.919998	9.001349E-6
66.925003	8.717994E-6
66.934998	9.229640E-6
66.940002	9.263516E-6
66.949997	9.618700E-6
66.955002	9.576441E-6
66.964996	9.973999E-6
66.970001	1.006271E-5
66.980003	1.031230E-5
66.985001	1.066329E-5
66.995003	1.073512E-5
67.000000	1.083664E-5
67.010002	1.109031E-5
67.014999	1.113268E-5
67.025002	1.143292E-5
67.029999	1.174584E-5
67.040001	1.194887E-5
67.044998	1.215597E-5
67.055000	1.243094E-5
67.059998	1.266354E-5
67.070000	1.301873E-5
67.074997	1.312443E-5
67.084999	1.351768E-5
67.089996	1.352199E-5
67.099998	1.385179E-5
67.105003	1.409708E-5
67.114998	1.431699E-5
67.120003	1.449464E-5
67.129997	1.485401E-5
67.135002	1.519662E-5
67.144997	1.497241E-5
67.150002	1.550524E-5
67.160004	1.606776E-5
67.165001	1.617346E-5
67.175003	1.651596E-5
67.180000	1.678243E-5
67.190002	1.739128E-5
67.195000	1.712074E-5
67.205002	1.768314E-5
67.214996	1.820328E-5
67.220001	1.832168E-5
67.230003	1.870224E-5
67.235001	1.874461E-5
67.245003	1.937884E-5
67.250000	1.983566E-5
67.260002	2.006826E-5
67.264999	2.053764E-5
67.275002	2.074905E-5
67.279999	2.126920E-5
67.290001	2.150179E-5
67.294998	2.180203E-5
67.305000	2.248283E-5
67.309998	2.253358E-5
67.320000	2.288038E-5
67.324997	2.334558E-5
67.334999	2.380228E-5
67.339996	2.391648E-5
67.349998	2.446200E-5
67.355003	2.477074E-5
67.364998	2.544734E-5
67.370003	2.584478E-5
67.379997	2.611964E-5
67.385002	2.649601E-5
67.394997	2.703734E-5
67.400002	2.734608E-5
67.410004	2.791698E-5
67.415001	2.839055E-5
67.425003	2.900371E-5
67.430000	2.916018E-5
67.440002	2.971420E-5
67.445000	3.014551E-5
67.455002	3.056426E-5
67.459999	3.091095E-5
67.470001	3.149454E-5
67.474998	3.201468E-5
67.485001	3.276742E-5
67.489998	3.295345E-5
67.500000	3.362168E-5
67.504997	3.405719E-5
67.514999	3.467046E-5
67.519997	3.490294E-5
67.529999	3.570644E-5
67.535004	3.652263E-5
67.544998	3.690319E-5
67.550003	3.749947E-5
67.559998	3.807887E-5
67.565002	3.844674E-5
67.574997	3.927981E-5
67.580002	3.977888E-5
67.589996	4.057388E-5
67.595001	4.086993E-5
67.605003	4.150427E-5
67.610001	4.231196E-5
67.620003	4.298438E-5
67.625000	4.326762E-5
67.635002	4.403736E-5
67.639999	4.468428E-5
67.650002	4.551746E-5
67.654999	4.585995E-5
67.665001	4.664646E-5
67.669998	4.730618E-5
67.680000	4.808430E-5
67.684998	4.859176E-5
67.695000	4.983507E-5
67.699997	5.015649E-5
67.709999	5.079503E-5
67.714996	5.141669E-5
67.724998	5.223707E-5
67.730003	5.280366E-5
67.739998	5.388632E-5
67.745003	5.453336E-5
67.754997	5.537912E-5
67.760002	5.638972E-5
67.769997	5.711289E-5
67.775002	5.762035E-5
67.785004	5.806016E-5
67.790001	5.925691E-5
67.800003	6.048754E-5
67.805000	6.082584E-5
67.815002	6.166741E-5
67.820000	6.234820E-5
67.830002	6.374798E-5
67.834999	6.440340E-5
67.845001	6.559177E-5
67.849998	6.605696E-5
67.860001	6.731285E-5
67.864998	6.778224E-5
67.875000	6.891985E-5
67.879997	6.969378E-5
67.889999	7.057760E-5
67.894997	7.174897E-5
67.904999	7.295422E-5
67.910004	7.332629E-5
67.919998	7.452734E-5
67.925003	7.554644E-5
67.934998	7.670943E-5
67.940002	7.714925E-5
67.949997	7.827405E-5
67.955002	7.966114E-5
67.964996	8.063798E-5
67.970001	8.117931E-5
67.980003	8.240982E-5
67.985001	8.339947E-5
67.995003	8.456653E-5
68.000000	8.574640E-5
68.010002	8.692208E-5
68.014999	8.774246E-5
68.025002	8.937484E-5
68.029999	8.990336E-5
68.040001	9.169220E-5
68.044998	9.272399E-5
68.055000	9.366288E-5
68.059998	9.446638E-5
68.070000	9.600981E-5
68.074997	9.696558E-5
68.084999	9.889819E-5
68.089996	9.910541E-5
68.099998	0.000101
68.105003	0.000102
68.114998	0.000104
68.120003	0.000105
68.129997	0.000106
68.135002	0.000108
68.144997	0.000109
68.150002	0.000110
68.160004	0.000111
68.165001	0.000112
68.175003	0.000114
68.180000	0.000115
68.190002	0.000117
68.195000	0.000118
68.205002	0.000119
68.209999	0.000121
68.220001	0.000122
68.224998	0.000124
68.235001	0.000125
68.239998	0.000127
68.250000	0.000128
68.254997	0.000129
68.264999	0.000131
68.269997	0.000132
68.279999	0.000135
68.285004	0.000135
68.294998	0.000137
68.300003	0.000139
68.309998	0.000140
68.315002	0.000141
68.324997	0.000143
68.330002	0.000144
68.339996	0.000147
68.345001	0.000148
68.355003	0.000150
68.360001	0.000151
68.370003	0.000153
68.375000	0.000154
68.385002	0.000156
68.389999	0.000157
68.400002	0.000159
68.404999	0.000161
68.415001	0.000163
68.419998	0.000164
68.430000	0.000166
68.434998	0.000168
68.445000	0.000169
68.449997	0.000171
68.459999	0.000173
68.464996	0.000174
68.474998	0.000176
68.480003	0.000177
68.489998	0.000180
68.495003	0.000181
68.504997	0.000183
68.510002	0.000184
68.519997	0.000185
68.525002	0.000187
68.535004	0.000189
68.540001	0.000190
68.550003	0.000192
68.555000	0.000193
68.565002	0.000195
68.570000	0.000196
68.580002	0.000198
68.584999	0.000200
68.595001	0.000201
68.599998	0.000202
68.610001	0.000204
68.614998	0.000205
68.625000	0.000206
68.629997	0.000207
68.639999	0.000209
68.644997	0.000210
68.654999	0.000212
68.660004	0.000213
68.669998	0.000214
68.675003	0.000215
68.684998	0.000216
68.690002	0.000218
68.699997	0.000219
68.705002	0.000220
68.714996	0.000221
68.720001	0.000222
68.730003	0.000223
68.735001	0.000224
68.745003	0.000225
68.750000	0.000226
68.760002	0.000226
68.764999	0.000227
68.775002	0.000228
68.779999	0.000229
68.790001	0.000230
68.794998	0.000230
68.805000	0.000231
68.809998	0.000232
68.820000	0.000233
68.824997	0.000233
68.834999	0.000234
68.839996	0.000234
68.849998	0.000235
68.855003	0.000235
68.864998	0.000236
68.870003	0.000236
68.879997	0.000237
68.885002	0.000238
68.894997	0.000238
68.900002	0.000239
68.910004	0.000240
68.915001	0.000240
68.925003	0.000241
68.930000	0.000241
68.940002	0.000242
68.945000	0.000242
68.955002	0.000243
68.959999	0.000243
68.970001	0.000244
68.974998	0.000244
68.985001	0.000245
68.989998	0.000245
69.000000	0.000246
69.004997	0.000246
69.014999	0.000247
69.019997	0.000247
69.029999	0.000248
69.035004	0.000248
69.044998	0.000249
69.050003	0.000249
69.059998	0.000249
69.065002	0.000250
69.074997	0.000250
69.080002	0.000250
69.089996	0.000251
69.095001	0.000251
69.105003	0.000252
69.110001	0.000252
69.120003	0.000253
69.125000	0.000253
69.135002	0.000254
69.139999	0.000254
69.150002	0.000255
69.154999	0.000255
69.165001	0.000255
69.169998	0.000256
69.180000	0.000256
69.184998	0.000257
69.195000	0.000257
69.199997	0.000257
69.209999	0.000258
69.214996	0.000258
69.224998	0.000259
69.230003	0.000259
69.239998	0.000259
69.245003	0.000260
69.254997	0.000260
69.260002	0.000260
69.269997	0.000261
69.275002	0.000261
69.285004	0.000262
69.290001	0.000262
69.300003	0.000262
69.305000	0.000263
69.315002	0.000263
69.320000	0.000263
69.330002	0.000264
69.334999	0.000264
69.345001	0.000264
69.349998	0.000265
69.360001	0.000265
69.364998	0.000265
69.375000	0.000266
69.379997	0.000266
69.389999	0.000266
69.394997	0.000267
69.404999	0.000267
69.410004	0.000267
69.419998	0.000268
69.425003	0.000268
69.434998	0.000268
69.440002	0.000269
69.449997	0.000269
69.455002	0.000269
69.464996	0.000270
69.470001	0.000270
69.480003	0.000270
69.485001	0.000270
69.495003	0.000271
69.500000	0.000271
69.510002	0.000271
69.514999	0.000272
69.525002	0.000272
69.529999	0.000272
69.540001	0.000273
69.544998	0.000273
69.555000	0.000273
69.559998	0.000273
69.570000	0.000274
69.574997	0.000274
69.584999	0.000274
69.589996	0.000275
69.599998	0.000275
69.605003	0.000275
69.614998	0.000276
69.620003	0.000276
69.629997	0.000276
69.635002	0.000276
69.644997	0.000277
69.650002	0.000277
69.660004	0.000277
69.665001	0.000277
69.675003	0.000278
69.680000	0.000278
69.690002	0.000278
69.695000	0.000278
69.705002	0.000279
69.709999	0.000279
69.720001	0.000279
69.724998	0.000279
69.735001	0.000280
69.739998	0.000280
69.750000	0.000280
69.754997	0.000280
69.764999	0.000281
69.775002	0.000281
69.779999	0.000281
69.790001	0.000281
69.794998	0.000282
69.805000	0.000282
69.809998	0.000282
69.820000	0.000283
69.824997	0.000283
69.834999	0.000283
69.839996	0.000283
69.849998	0.000284
69.855003	0.000284
69.864998	0.000284
69.870003	0.000284
69.879997	0.000284
69.885002	0.000285
69.894997	0.000285
69.900002	0.000285
69.910004	0.000285
69.915001	0.000285
69.925003	0.000286
69.930000	0.000286
69.940002	0.000286
69.945000	0.000286
69.955002	0.000287
69.959999	0.000287
69.970001	0.000287
69.974998	0.000287
69.985001	0.000287
69.989998	0.000288
70.000000	0.000288
70.004997	0.000288
70.014999	0.000288
70.019997	0.000289
70.029999	0.000289
70.035004	0.000289
70.044998	0.000289
70.050003	0.000289
70.059998	0.000290
70.065002	0.000290
70.074997	0.000290
70.080002	0.000290
70.089996	0.000290
70.095001	0.000290
70.105003	0.000291
70.110001	0.000291
70.120003	0.000291
70.125000	0.000291
70.135002	0.000291
70.139999	0.000292
70.150002	0.000292
70.154999	0.000292
70.165001	0.000292
70.169998	0.000292
70.180000	0.000293
70.184998	0.000293
70.195000	0.000293
70.199997	0.000293
70.209999	0.000293
70.214996	0.000293
70.224998	0.000294
70.230003	0.000294
70.239998	0.000294
70.245003	0.000294
70.254997	0.000294
70.260002	0.000295
70.269997	0.000295
70.275002	0.000295
70.285004	0.000295
70.290001	0.000295
70.300003	0.000296
70.305000	0.000296
70.315002	0.000296
70.320000	0.000296
70.330002	0.000296
70.334999	0.000296
70.345001	0.000297
70.349998	0.000297
70.360001	0.000297
70.364998	0.000297
70.375000	0.000297
70.379997	0.000297
70.389999	0.000298
70.394997	0.000298
70.404999	0.000298
70.410004	0.000298
70.419998	0.000298
70.425003	0.000298
70.434998	0.000299
70.440002	0.000299
70.449997	0.000299
70.455002	0.000299
70.464996	0.000299
70.470001	0.000299
70.480003	0.000300
70.485001	0.000300
70.495003	0.000300
70.500000	0.000300
70.510002	0.000300
70.514999	0.000300
70.525002	0.000300
70.529999	0.000301
70.540001	0.000301
70.544998	0.000301
70.555000	0.000301
70.559998	0.000301
70.570000	0.000301
70.574997	0.000301
70.584999	0.000302
70.589996	0.000302
70.599998	0.000302
70.605003	0.000302
70.614998	0.000302
70.620003	0.000302
70.629997	0.000302
70.635002	0.000303
70.644997	0.000303
70.650002	0.000303
70.660004	0.000303
70.665001	0.000303
70.675003	0.000303
70.680000	0.000303
70.690002	0.000304
70.695000	0.000304
70.705002	0.000304
70.709999	0.000304
70.720001	0.000304
70.724998	0.000304
70.735001	0.000305
70.739998	0.000304
70.750000	0.000305
70.754997	0.000305
70.764999	0.000305
70.769997	0.000305
70.779999	0.000305
70.785004	0.000305
70.794998	0.000306
70.800003	0.000306
70.809998	0.000306
70.815002	0.000306
70.824997	0.000306
70.830002	0.000306
70.839996	0.000306
70.845001	0.000306
70.855003	0.000307
70.860001	0.000307
70.870003	0.000307
70.875000	0.000307
70.885002	0.000307
70.889999	0.000307
70.900002	0.000307
70.904999	0.000307
70.915001	0.000308
70.919998	0.000308
70.930000	0.000308
70.934998	0.000308
70.945000	0.000308
70.949997	0.000308
70.959999	0.000308
70.964996	0.000308
70.974998	0.000309
70.980003	0.000309
70.989998	0.000309
70.995003	0.000309
71.004997	0.000309
71.010002	0.000309
71.019997	0.000309
71.025002	0.000309
71.035004	0.000309
71.040001	0.000310
71.050003	0.000310
71.055000	0.000310
71.065002	0.000310
71.070000	0.000310
71.080002	0.000310
71.084999	0.000310
71.095001	0.000310
71.099998	0.000311
71.110001	0.000311
71.114998	0.000311
71.125000	0.000311
71.129997	0.000311
71.139999	0.000311
71.144997	0.000311
71.154999	0.000311
71.160004	0.000311
71.169998	0.000312
71.175003	0.000312
71.184998	0.000312
71.190002	0.000312
71.199997	0.000312
71.205002	0.000312
71.214996	0.000312
71.220001	0.000312
71.230003	0.000312
71.235001	0.000313
71.245003	0.000313
71.250000	0.000313
71.260002	0.000313
71.264999	0.000313
71.275002	0.000313
71.279999	0.000313
71.290001	0.000313
71.294998	0.000313
71.305000	0.000314
71.309998	0.000314
71.320000	0.000314
71.324997	0.000314
71.334999	0.000314
71.339996	0.000314
71.349998	0.000314
71.355003	0.000314
71.364998	0.000314
71.370003	0.000314
71.379997	0.000314
71.385002	0.000315
71.394997	0.000315
71.400002	0.000315
71.410004	0.000315
71.415001	0.000315
71.425003	0.000315
71.430000	0.000315
71.440002	0.000315
71.445000	0.000315
71.455002	0.000316
71.459999	0.000316
71.470001	0.000316
71.474998	0.000316
71.485001	0.000316
71.489998	0.000316
71.500000	0.000316
71.504997	0.000316
71.514999	0.000316
71.519997	0.000316
71.529999	0.000316
71.535004	0.000316
71.544998	0.000317
71.550003	0.000317
71.559998	0.000317
71.565002	0.000317
71.574997	0.000317
71.580002	0.000317
71.589996	0.000317
71.595001	0.000317
71.605003	0.000317
71.610001	0.000317
71.620003	0.000317
71.625000	0.000318
71.635002	0.000318
71.639999	0.000318
71.650002	0.000318
71.654999	0.000318
71.665001	0.000318
71.669998	0.000318
71.680000	0.000318
71.684998	0.000318
71.695000	0.000318
71.699997	0.000318
71.709999	0.000319
71.714996	0.000319
71.724998	0.000319
71.730003	0.000319
71.739998	0.000319
71.745003	0.000319
71.754997	0.000319
71.760002	0.000319
71.769997	0.000319
71.775002	0.000319
71.785004	0.000319
71.790001	0.000320
71.800003	0.000320
71.805000	0.000320
71.815002	0.000320
71.820000	0.000320
71.830002	0.000320
71.834999	0.000320
71.845001	0.000320
71.849998	0.000320
71.860001	0.000320
71.864998	0.000320
71.875000	0.000320
71.879997	0.000320
71.889999	0.000321
71.894997	0.000321
71.904999	0.000321
71.910004	0.000321
71.919998	0.000321
71.925003	0.000321
71.934998	0.000321
71.940002	0.000321
71.949997	0.000321
71.955002	0.000321
71.964996	0.000321
71.970001	0.000321
71.980003	0.000321
71.985001	0.000321
71.995003	0.000322
72.000000	0.000322
72.010002	0.000322
72.014999	0.000322
72.025002	0.000322
72.029999	0.000322
72.040001	0.000322
72.044998	0.000322
72.055000	0.000322
72.059998	0.000322
72.070000	0.000322
72.074997	0.000322
72.084999	0.000322
72.089996	0.000322
72.099998	0.000323
72.105003	0.000323
72.114998	0.000323
72.120003	0.000323
72.129997	0.000323
72.135002	0.000323
72.144997	0.000323
72.150002	0.000323
72.160004	0.000323
72.165001	0.000323
72.175003	0.000323
72.180000	0.000323
72.190002	0.000323
72.195000	0.000323
72.205002	0.000324
72.209999	0.000324
72.220001	0.000324
72.224998	0.000324
72.235001	0.000324
72.239998	0.000324
72.250000	0.000324
72.254997	0.000324
72.264999	0.000324
72.269997	0.000324
72.279999	0.000324
72.285004	0.000324
72.294998	0.000324
72.300003	0.000324
72.309998	0.000324
72.315002	0.000324
72.324997	0.000325
72.334999	0.000325
72.339996	0.000325
72.349998	0.000325
72.355003	0.000325
72.364998	0.000325
72.370003	0.000325
72.379997	0.000325
72.385002	0.000325
72.394997	0.000325
72.400002	0.000325
72.410004	0.000325
72.415001	0.000325
72.425003	0.000325
72.430000	0.000325
72.440002	0.000326
72.445000	0.000326
72.455002	0.000326
72.459999	0.000326
72.470001	0.000326
72.474998	0.000326
72.485001	0.000326
72.489998	0.000326
72.500000	0.000326
72.504997	0.000326
72.514999	0.000326
72.519997	0.000326
72.529999	0.000326
72.535004	0.000326
72.544998	0.000326
72.550003	0.000326
72.559998	0.000326
72.565002	0.000326
72.574997	0.000326
72.580002	0.000327
72.589996	0.000327
72.595001	0.000327
72.605003	0.000327
72.610001	0.000327
72.620003	0.000327
72.625000	0.000327
72.635002	0.000327
72.639999	0.000327
72.650002	0.000327
72.654999	0.000327
72.665001	0.000327
72.669998	0.000327
72.680000	0.000327
72.684998	0.000327
72.695000	0.000327
72.699997	0.000327
72.709999	0.000328
72.714996	0.000328
72.724998	0.000328
72.730003	0.000328
72.739998	0.000328
72.745003	0.000328
72.754997	0.000328
72.760002	0.000328
72.769997	0.000328
72.775002	0.000328
72.785004	0.000328
72.790001	0.000328
72.800003	0.000328
72.805000	0.000328
72.815002	0.000328
72.820000	0.000328
72.830002	0.000328
72.834999	0.000328
72.845001	0.000329
72.849998	0.000329
72.860001	0.000329
72.864998	0.000329
72.875000	0.000329
72.879997	0.000329
72.889999	0.000329
72.894997	0.000329
72.904999	0.000329
72.910004	0.000329
72.919998	0.000329
72.925003	0.000329
72.934998	0.000329
72.940002	0.000329
72.949997	0.000329
72.955002	0.000329
72.964996	0.000329
72.970001	0.000329
72.980003	0.000329
72.985001	0.000329
72.995003	0.000329
73.000000	0.000329
73.010002	0.000330
73.014999	0.000329
73.025002	0.000330
73.029999	0.000330
73.040001	0.000330
73.044998	0.000330
73.055000	0.000330
73.059998	0.000330
73.070000	0.000330
73.074997	0.000330
73.084999	0.000330
73.089996	0.000330
73.099998	0.000330
73.105003	0.000330
73.114998	0.000330
73.120003	0.000330
73.129997	0.000330
73.135002	0.000330
73.144997	0.000330
73.150002	0.000330
73.160004	0.000330
73.165001	0.000330
73.175003	0.000331
73.180000	0.000331
73.190002	0.000331
73.195000	0.000331
73.205002	0.000331
73.209999	0.000331
73.220001	0.000331
73.224998	0.000331
73.235001	0.000331
73.239998	0.000331
73.250000	0.000331
73.254997	0.000331
73.264999	0.000331
73.269997	0.000331
73.279999	0.000331
73.285004	0.000331
73.294998	0.000331
73.300003	0.000331
73.309998	0.000331
73.315002	0.000331
73.324997	0.000331
73.330002	0.000331
73.339996	0.000331
73.345001	0.000331
73.355003	0.000332
73.360001	0.000331
73.370003	0.000331
73.375000	0.000332
73.385002	0.000332
73.389999	0.000332
73.400002	0.000332
73.404999	0.000332
73.415001	0.000332
73.419998	0.000332
73.430000	0.000332
73.434998	0.000332
73.445000	0.000332
73.449997	0.000332
73.459999	0.000332
73.464996	0.000332
73.474998	0.000332
73.480003	0.000332
73.489998	0.000332
73.495003	0.000332
73.504997	0.000332
73.510002	0.000332
73.519997	0.000332
73.525002	0.000332
73.535004	0.000332
73.540001	0.000332
73.550003	0.000332
73.555000	0.000333
73.565002	0.000333
73.570000	0.000333
73.580002	0.000333
73.584999	0.000333
73.595001	0.000333
73.599998	0.000333
73.610001	0.000333
73.614998	0.000333
73.625000	0.000333
73.629997	0.000333
73.639999	0.000333
73.644997	0.000333
73.654999	0.000333
73.660004	0.000333
73.669998	0.000333
73.675003	0.000333
73.684998	0.000333
73.690002	0.000333
73.699997	0.000333
73.705002	0.000333
73.714996	0.000333
73.720001	0.000333
73.730003	0.000333
73.735001	0.000333
73.745003	0.000333
73.750000	0.000333
73.760002	0.000333
73.764999	0.000333
73.775002	0.000334
73.779999	0.000334
73.790001	0.000334
73.794998	0.000334
73.805000	0.000334
73.809998	0.000334
73.820000	0.000334
73.824997	0.000334
73.834999	0.000334
73.839996	0.000334
73.849998	0.000334
73.855003	0.000334
73.864998	0.000334
73.870003	0.000334
73.879997	0.000334
73.885002	0.000334
73.894997	0.000334
73.900002	0.000334
73.910004	0.000334
73.915001	0.000334
73.925003	0.000334
73.930000	0.000334
73.940002	0.000334
73.945000	0.000334
73.955002	0.000334
73.959999	0.000334
73.970001	0.000334
73.974998	0.000334
73.985001	0.000334
73.989998	0.000334
74.000000	0.000334
74.004997	0.000334
74.014999	0.000335
74.019997	0.000335
74.029999	0.000335
74.035004	0.000335
74.044998	0.000335
74.050003	0.000335
74.059998	0.000335
74.065002	0.000335
74.074997	0.000335
74.080002	0.000335
74.089996	0.000335
74.095001	0.000335
74.105003	0.000335
74.110001	0.000335
74.120003	0.000335
74.125000	0.000335
74.135002	0.000335
74.139999	0.000335
74.150002	0.000335
74.154999	0.000335
74.165001	0.000335
74.169998	0.000335
74.180000	0.000335
74.184998	0.000335
74.195000	0.000335
74.199997	0.000335
74.209999	0.000335
74.214996	0.000335
74.224998	0.000335
74.230003	0.000335
74.239998	0.000335
74.245003	0.000335
74.254997	0.000335
74.260002	0.000335
74.269997	0.000335
74.275002	0.000335
74.285004	0.000336
74.290001	0.000335
74.300003	0.000336
74.305000	0.000336
74.315002	0.000336
74.320000	0.000336
74.330002	0.000336
74.334999	0.000336
74.345001	0.000336
74.349998	0.000336
74.360001	0.000336
74.364998	0.000336
74.375000	0.000336
74.379997	0.000336
74.389999	0.000336
74.394997	0.000336
74.404999	0.000336
74.410004	0.000336
74.419998	0.000336
74.425003	0.000336
74.434998	0.000336
74.440002	0.000336
74.449997	0.000336
74.455002	0.000336
74.464996	0.000336
74.470001	0.000336
74.480003	0.000336
74.485001	0.000336
74.495003	0.000336
74.500000	0.000336
74.510002	0.000336
74.514999	0.000336
74.525002	0.000336
74.529999	0.000336
74.540001	0.000336
74.544998	0.000336
74.555000	0.000336
74.559998	0.000336
74.570000	0.000337
74.574997	0.000336
74.584999	0.000337
74.589996	0.000337
74.599998	0.000337
74.605003	0.000337
74.614998	0.000337
74.620003	0.000337
74.629997	0.000337
74.635002	0.000337
74.644997	0.000337
74.650002	0.000337
74.660004	0.000337
74.665001	0.000337
74.675003	0.000337
74.680000	0.000337
74.690002	0.000337
74.695000	0.000337
74.705002	0.000337
74.709999	0.000337
74.720001	0.000337
74.724998	0.000337
74.735001	0.000337
74.739998	0.000337
74.750000	0.000337
74.754997	0.000337
74.764999	0.000337
74.769997	0.000337
74.779999	0.000337
74.785004	0.000337
74.794998	0.000337
74.800003	0.000337
74.809998	0.000337
74.815002	0.000337
74.824997	0.000337
74.830002	0.000337
74.839996	0.000337
74.845001	0.000337
74.855003	0.000337
74.860001	0.000337
74.870003	0.000337
74.875000	0.000337
74.885002	0.000337
74.889999	0.000337
74.900002	0.000337
74.910004	0.000337
74.915001	0.000337
74.925003	0.000337
74.930000	0.000337
74.940002	0.000337
74.945000	0.000337
74.955002	0.000337
74.959999	0.000337
74.970001	0.000338
74.974998	0.000338
74.985001	0.000338
74.989998	0.000338
75.000000	0.000338
75.004997	0.000338
