% Langmuir characteristic curve

% U (Volt)	I (A)
60.000000	-4.206086E-7
60.009998	-3.571622E-7
60.014999	-3.402820E-7
60.025002	-4.122267E-7
60.029999	-3.275927E-7
60.040001	-4.291069E-7
60.044998	-5.263137E-7
60.055000	-5.009351E-7
60.060001	-3.317837E-7
60.070000	-4.544854E-7
60.075001	-4.882459E-7
60.084999	-4.713656E-7
60.090000	-4.459871E-7
60.099998	-3.910391E-7
60.105000	-2.895249E-7
60.115002	-3.910391E-7
60.119999	-1.965091E-7
60.130001	-3.698515E-7
60.134998	-3.910391E-7
60.145000	-4.037283E-7
60.150002	-3.022142E-7
60.160000	-6.278278E-7
60.165001	-3.656605E-7
60.174999	-3.529713E-7
60.180000	-3.360910E-7
60.189999	-2.853340E-7
60.195000	-4.544854E-7
60.205002	-3.656605E-7
60.209999	-3.995374E-7
60.220001	-3.698515E-7
60.224998	-1.626322E-7
60.235001	-3.741588E-7
60.240002	-3.741588E-7
60.250000	-4.122267E-7
60.255001	-3.656605E-7
60.264999	-3.656605E-7
60.270000	-2.937159E-7
60.279999	-6.109476E-7
60.285000	-3.107125E-7
60.294998	-4.840549E-7
60.299999	-2.980232E-7
60.310001	-3.190944E-7
60.314999	-3.360910E-7
60.325001	-2.726447E-7
60.330002	-2.599554E-7
60.340000	-3.783498E-7
60.345001	-3.064051E-7
60.355000	-2.980232E-7
60.360001	-3.614696E-7
60.369999	-3.995374E-7
60.375000	-3.360910E-7
60.384998	-5.009351E-7
60.389999	-3.360910E-7
60.400002	-1.922017E-7
60.404999	-3.275927E-7
60.415001	-3.107125E-7
60.419998	-4.840549E-7
60.430000	-2.429588E-7
60.435001	-2.726447E-7
60.445000	-4.291069E-7
60.450001	-2.937159E-7
60.459999	-3.868481E-7
60.465000	-2.345769E-7
60.474998	-3.402820E-7
60.480000	-2.175802E-7
60.490002	-3.698515E-7
60.494999	-4.967442E-7
60.505001	-4.079193E-7
60.509998	-3.275927E-7
60.520000	-3.275927E-7
60.525002	-3.571622E-7
60.535000	-3.064051E-7
60.540001	-4.628673E-7
60.549999	-3.698515E-7
60.555000	-2.683373E-7
60.564999	-2.895249E-7
60.570000	-3.064051E-7
60.580002	-3.149034E-7
60.584999	-3.234018E-7
60.595001	-4.544854E-7
60.599998	-4.459871E-7
60.610001	-5.348120E-7
60.615002	-3.444729E-7
60.625000	-3.064051E-7
60.630001	-3.107125E-7
60.639999	-3.868481E-7
60.645000	-3.783498E-7
60.654999	-4.501780E-7
60.660000	-2.556480E-7
60.669998	-2.387678E-7
60.674999	-3.656605E-7
60.685001	-3.698515E-7
60.689999	-4.247995E-7
60.700001	-5.052425E-7
60.705002	-4.501780E-7
60.715000	-4.332978E-7
60.720001	-2.260786E-7
60.730000	-3.656605E-7
60.735001	-5.009351E-7
60.744999	-3.275927E-7
60.750000	-3.360910E-7
60.759998	-3.107125E-7
60.764999	-3.529713E-7
60.775002	-2.007000E-7
60.779999	-4.544854E-7
60.790001	-4.713656E-7
60.794998	-2.007000E-7
60.805000	-1.753215E-7
60.810001	-3.107125E-7
60.820000	-5.263137E-7
60.825001	-3.783498E-7
60.834999	-3.741588E-7
60.840000	-3.614696E-7
60.849998	-3.402820E-7
60.855000	-3.529713E-7
60.865002	-3.149034E-7
60.869999	-3.275927E-7
60.880001	-4.628673E-7
60.884998	-1.287553E-7
60.895000	-3.698515E-7
60.900002	-4.713656E-7
60.910000	-4.247995E-7
60.915001	-3.360910E-7
60.924999	-5.686888E-7
60.930000	-3.952300E-7
60.939999	-2.599554E-7
60.945000	-3.275927E-7
60.955002	-3.910391E-7
60.959999	-3.487803E-7
60.970001	-1.965091E-7
60.974998	-3.234018E-7
60.985001	-2.302695E-7
60.990002	-3.317837E-7
61.000000	-4.164176E-7
61.005001	-2.810266E-7
61.014999	-2.937159E-7
61.020000	-2.980232E-7
61.029999	-2.853340E-7
61.035000	-2.175802E-7
61.044998	-4.247995E-7
61.049999	-4.079193E-7
61.060001	-3.741588E-7
61.064999	-3.317837E-7
61.075001	-3.529713E-7
61.080002	-1.753215E-7
61.090000	-2.895249E-7
61.095001	-2.768356E-7
61.105000	-4.798640E-7
61.110001	-3.022142E-7
61.119999	-2.641464E-7
61.125000	-2.641464E-7
61.134998	-5.052425E-7
61.139999	-3.444729E-7
61.150002	-3.402820E-7
61.154999	-2.937159E-7
61.165001	-3.952300E-7
61.169998	-4.164176E-7
61.180000	-4.374888E-7
61.185001	-4.247995E-7
61.195000	-3.741588E-7
61.200001	-2.937159E-7
61.209999	-4.840549E-7
61.215000	-3.022142E-7
61.224998	-1.753215E-7
61.230000	-4.417961E-7
61.240002	-3.487803E-7
61.244999	-3.275927E-7
61.255001	-3.910391E-7
61.259998	-6.870832E-7
61.270000	-5.052425E-7
61.275002	-3.571622E-7
61.285000	-5.009351E-7
61.290001	-3.317837E-7
61.299999	-3.234018E-7
61.305000	-3.234018E-7
61.314999	-4.798640E-7
61.320000	-3.571622E-7
61.330002	-2.683373E-7
61.334999	-3.234018E-7
61.345001	-3.275927E-7
61.349998	-3.317837E-7
61.360001	-3.275927E-7
61.365002	-2.091983E-7
61.375000	-4.882459E-7
61.380001	-2.007000E-7
61.389999	-3.741588E-7
61.395000	-5.009351E-7
61.404999	-4.459871E-7
61.410000	-3.444729E-7
61.419998	-4.671747E-7
61.424999	-4.713656E-7
61.435001	-2.810266E-7
61.439999	-2.810266E-7
61.450001	-3.995374E-7
61.455002	-3.529713E-7
61.465000	-1.499429E-7
61.470001	-4.755566E-7
61.480000	-3.952300E-7
61.485001	-3.529713E-7
61.494999	-3.614696E-7
61.500000	-3.529713E-7
61.509998	-3.275927E-7
61.514999	-4.079193E-7
61.525002	-2.007000E-7
61.529999	-3.741588E-7
61.540001	-3.825407E-7
61.544998	-1.626322E-7
61.555000	-3.402820E-7
61.560001	-3.444729E-7
61.570000	-2.599554E-7
61.575001	-3.149034E-7
61.584999	-4.671747E-7
61.590000	-4.628673E-7
61.599998	-3.614696E-7
61.605000	-3.529713E-7
61.615002	-3.825407E-7
61.619999	-3.529713E-7
61.630001	-2.980232E-7
61.634998	-3.952300E-7
61.645000	-4.628673E-7
61.650002	-5.094334E-7
61.660000	-3.952300E-7
61.665001	-3.149034E-7
61.674999	-3.234018E-7
61.680000	-1.457520E-7
61.689999	-4.332978E-7
61.695000	-2.853340E-7
61.705002	-3.064051E-7
61.709999	-4.332978E-7
61.720001	-6.067567E-7
61.724998	-3.868481E-7
61.735001	-3.698515E-7
61.740002	-4.206086E-7
61.750000	-6.658956E-7
61.755001	-3.571622E-7
61.764999	-3.487803E-7
61.770000	-3.149034E-7
61.779999	-3.402820E-7
61.785000	-1.414446E-7
61.794998	-2.472661E-7
61.799999	-4.037283E-7
61.810001	-3.360910E-7
61.814999	-2.895249E-7
61.825001	-3.656605E-7
61.830002	-3.064051E-7
61.840000	-4.247995E-7
61.845001	-4.544854E-7
61.855000	-3.868481E-7
61.860001	-3.360910E-7
61.869999	-2.937159E-7
61.875000	-3.234018E-7
61.884998	-4.671747E-7
61.889999	-4.417961E-7
61.900002	-3.275927E-7
61.904999	-2.514571E-7
61.915001	-2.726447E-7
61.919998	-3.064051E-7
61.930000	-4.586764E-7
61.935001	-2.810266E-7
61.945000	-4.755566E-7
61.950001	-2.260786E-7
61.959999	-3.402820E-7
61.965000	-3.275927E-7
61.974998	-3.571622E-7
61.980000	-4.925532E-7
61.990002	-3.487803E-7
61.994999	-3.275927E-7
62.005001	-3.571622E-7
62.009998	-4.374888E-7
62.020000	-3.190944E-7
62.025002	-3.149034E-7
62.035000	-2.895249E-7
62.040001	-1.330627E-7
62.049999	-2.768356E-7
62.055000	-2.556480E-7
62.064999	-3.529713E-7
62.070000	-4.459871E-7
62.080002	-4.628673E-7
62.084999	-4.079193E-7
62.095001	-3.275927E-7
62.099998	-3.149034E-7
62.110001	-1.838198E-7
62.115002	-2.726447E-7
62.125000	-1.414446E-7
62.130001	-3.444729E-7
62.139999	-1.414446E-7
62.145000	-3.064051E-7
62.154999	-1.838198E-7
62.160000	-3.317837E-7
62.169998	-4.206086E-7
62.174999	-3.234018E-7
62.185001	-3.910391E-7
62.189999	-3.571622E-7
62.200001	-3.149034E-7
62.205002	-4.206086E-7
62.215000	-3.741588E-7
62.220001	-3.022142E-7
62.230000	-2.853340E-7
62.235001	-3.317837E-7
62.244999	-3.275927E-7
62.250000	-4.247995E-7
62.259998	-8.649658E-8
62.264999	-4.122267E-7
62.275002	-4.713656E-7
62.279999	-4.882459E-7
62.290001	-4.798640E-7
62.294998	-3.995374E-7
62.305000	-3.571622E-7
62.310001	-5.052425E-7
62.320000	-1.795124E-7
62.325001	-3.614696E-7
62.334999	-3.571622E-7
62.340000	-2.175802E-7
62.349998	-3.275927E-7
62.355000	-3.360910E-7
62.365002	-3.741588E-7
62.369999	-3.190944E-7
62.380001	-2.726447E-7
62.384998	-3.952300E-7
62.395000	-2.768356E-7
62.400002	-3.064051E-7
62.410000	-4.374888E-7
62.415001	-4.374888E-7
62.424999	-4.206086E-7
62.430000	-2.599554E-7
62.439999	-2.937159E-7
62.445000	-2.514571E-7
62.455002	-3.698515E-7
62.459999	-3.360910E-7
62.470001	-2.768356E-7
62.474998	-3.022142E-7
62.485001	-2.726447E-7
62.490002	-3.360910E-7
62.500000	-3.910391E-7
62.505001	-3.234018E-7
62.514999	-3.234018E-7
62.520000	-3.317837E-7
62.529999	-3.698515E-7
62.535000	-2.683373E-7
62.544998	-3.064051E-7
62.549999	-2.768356E-7
62.560001	-4.840549E-7
62.564999	-4.628673E-7
62.575001	-4.247995E-7
62.580002	-3.317837E-7
62.590000	-2.007000E-7
62.595001	-3.064051E-7
62.605000	-3.529713E-7
62.610001	-2.853340E-7
62.619999	-3.107125E-7
62.625000	-3.910391E-7
62.634998	-3.529713E-7
62.639999	-3.064051E-7
62.650002	-5.094334E-7
62.654999	-3.656605E-7
62.665001	-2.133893E-7
62.669998	-4.332978E-7
62.680000	-3.529713E-7
62.685001	-2.007000E-7
62.695000	-2.345769E-7
62.700001	-2.429588E-7
62.709999	-2.980232E-7
62.715000	-4.247995E-7
62.724998	-3.825407E-7
62.730000	-2.683373E-7
62.740002	-1.753215E-7
62.744999	-3.741588E-7
62.755001	-3.190944E-7
62.759998	-3.868481E-7
62.770000	-3.868481E-7
62.775002	-3.698515E-7
62.785000	-4.291069E-7
62.790001	-2.895249E-7
62.799999	-2.260786E-7
62.805000	-4.247995E-7
62.814999	-3.487803E-7
62.820000	-2.980232E-7
62.830002	-2.007000E-7
62.834999	-2.980232E-7
62.845001	-2.641464E-7
62.849998	-4.882459E-7
62.860001	-4.206086E-7
62.865002	-3.825407E-7
62.875000	-3.190944E-7
62.880001	-1.753215E-7
62.889999	-3.275927E-7
62.895000	-2.853340E-7
62.904999	-2.980232E-7
62.910000	-3.107125E-7
62.919998	-2.218876E-7
62.924999	-2.726447E-7
62.935001	-2.683373E-7
62.939999	-1.076842E-7
62.950001	-3.910391E-7
62.955002	-4.501780E-7
62.965000	-3.064051E-7
62.970001	-3.402820E-7
62.980000	-2.810266E-7
62.985001	-5.179318E-7
62.994999	-2.048910E-7
63.000000	-3.234018E-7
63.009998	-3.741588E-7
63.014999	-3.317837E-7
63.025002	-1.245644E-7
63.029999	-4.374888E-7
63.040001	-4.206086E-7
63.044998	-4.713656E-7
63.055000	-3.064051E-7
63.060001	-2.556480E-7
63.070000	-4.079193E-7
63.075001	-1.584413E-7
63.084999	-1.711305E-7
63.090000	-3.995374E-7
63.099998	-3.149034E-7
63.105000	-3.825407E-7
63.115002	-3.571622E-7
63.119999	-3.910391E-7
63.130001	-2.472661E-7
63.134998	-2.387678E-7
63.145000	-1.457520E-7
63.150002	-2.641464E-7
63.160000	-3.190944E-7
63.165001	-1.245644E-7
63.174999	-3.107125E-7
63.180000	-3.022142E-7
63.189999	-2.599554E-7
63.195000	-3.107125E-7
63.205002	-3.402820E-7
63.209999	-5.009351E-7
63.220001	-3.910391E-7
63.224998	-3.190944E-7
63.235001	-2.514571E-7
63.240002	-3.107125E-7
63.250000	-1.203734E-7
63.255001	-2.683373E-7
63.264999	-2.514571E-7
63.270000	-3.190944E-7
63.279999	-3.698515E-7
63.285000	-2.980232E-7
63.294998	-4.713656E-7
63.299999	-1.584413E-7
63.310001	-2.768356E-7
63.314999	-3.783498E-7
63.325001	-4.544854E-7
63.330002	-4.798640E-7
63.340000	-5.516922E-7
63.345001	-2.853340E-7
63.355000	-2.599554E-7
63.360001	-3.234018E-7
63.369999	-3.190944E-7
63.375000	-2.810266E-7
63.384998	-1.160661E-7
63.389999	-3.487803E-7
63.400002	-4.037283E-7
63.404999	-3.487803E-7
63.415001	-3.698515E-7
63.419998	-5.855691E-7
63.430000	-3.487803E-7
63.435001	-3.656605E-7
63.445000	-3.360910E-7
63.450001	-5.052425E-7
63.459999	-3.529713E-7
63.465000	-3.614696E-7
63.474998	-4.417961E-7
63.480000	-2.472661E-7
63.490002	-1.795124E-7
63.494999	-2.472661E-7
63.505001	-3.360910E-7
63.509998	-2.514571E-7
63.520000	-2.302695E-7
63.525002	-3.275927E-7
63.535000	-3.275927E-7
63.540001	-3.402820E-7
63.549999	-3.995374E-7
63.555000	-4.925532E-7
63.564999	-2.853340E-7
63.570000	-4.332978E-7
63.580002	-2.599554E-7
63.584999	-3.360910E-7
63.595001	-1.457520E-7
63.599998	-3.698515E-7
63.610001	-4.459871E-7
63.615002	-2.345769E-7
63.625000	-2.387678E-7
63.630001	-3.571622E-7
63.639999	-3.741588E-7
63.645000	-3.698515E-7
63.654999	-3.741588E-7
63.660000	-2.726447E-7
63.669998	-2.853340E-7
63.674999	-1.965091E-7
63.685001	-1.584413E-7
63.689999	-3.022142E-7
63.700001	-3.107125E-7
63.705002	-2.556480E-7
63.715000	-2.260786E-7
63.720001	-2.683373E-7
63.730000	-2.007000E-7
63.735001	-3.614696E-7
63.744999	-3.064051E-7
63.750000	-3.064051E-7
63.759998	-2.556480E-7
63.764999	-1.584413E-7
63.775002	-2.556480E-7
63.779999	-3.614696E-7
63.790001	-2.937159E-7
63.794998	-4.459871E-7
63.805000	-3.783498E-7
63.810001	-4.586764E-7
63.820000	-2.810266E-7
63.825001	-2.387678E-7
63.834999	-2.345769E-7
63.840000	-2.641464E-7
63.849998	-7.380731E-8
63.855000	-4.206086E-7
63.865002	-4.628673E-7
63.869999	-3.317837E-7
63.880001	-3.317837E-7
63.884998	-3.614696E-7
63.895000	-2.683373E-7
63.900002	-3.275927E-7
63.910000	-3.190944E-7
63.915001	-4.544854E-7
63.924999	-3.234018E-7
63.930000	-3.234018E-7
63.939999	-2.810266E-7
63.945000	-3.107125E-7
63.955002	-2.768356E-7
63.959999	-2.980232E-7
63.970001	-2.133893E-7
63.974998	-3.444729E-7
63.985001	-1.160661E-7
63.990002	-3.107125E-7
64.000000	-2.895249E-7
64.004997	-3.614696E-7
64.014999	-2.895249E-7
64.019997	-3.614696E-7
64.029999	-3.868481E-7
64.035004	-4.544854E-7
64.044998	-2.683373E-7
64.050003	-3.995374E-7
64.059998	-8.649658E-8
64.065002	-8.230563E-8
64.074997	-2.472661E-7
64.080002	-2.345769E-7
64.089996	-2.810266E-7
64.095001	-3.571622E-7
64.105003	-3.234018E-7
64.110001	-2.810266E-7
64.120003	-3.190944E-7
64.125000	-1.541339E-7
64.135002	-2.853340E-7
64.139999	-2.556480E-7
64.150002	-3.149034E-7
64.154999	-2.937159E-7
64.165001	-2.133893E-7
64.169998	-2.133893E-7
64.180000	-5.433103E-7
64.184998	-3.149034E-7
64.195000	-2.007000E-7
64.199997	-3.064051E-7
64.209999	-1.245644E-7
64.214996	-2.768356E-7
64.224998	-3.275927E-7
64.230003	-3.529713E-7
64.239998	-2.895249E-7
64.245003	-4.925532E-7
64.254997	-3.234018E-7
64.260002	-2.810266E-7
64.269997	-3.064051E-7
64.275002	-4.291069E-7
64.285004	-3.614696E-7
64.290001	-9.499490E-8
64.300003	-3.698515E-7
64.305000	-3.190944E-7
64.315002	-3.487803E-7
64.320000	-2.556480E-7
64.330002	-3.444729E-7
64.334999	-3.529713E-7
64.345001	-2.556480E-7
64.349998	-3.402820E-7
64.360001	-4.798640E-7
64.364998	-3.107125E-7
64.375000	-3.022142E-7
64.379997	-3.444729E-7
64.389999	-2.726447E-7
64.394997	-9.499490E-8
64.404999	-2.472661E-7
64.410004	-2.980232E-7
64.419998	-2.556480E-7
64.425003	-2.768356E-7
64.434998	-4.122267E-7
64.440002	-3.107125E-7
64.449997	-3.360910E-7
64.455002	-3.190944E-7
64.464996	-1.838198E-7
64.470001	-2.599554E-7
64.480003	-4.586764E-7
64.485001	-1.160661E-7
64.495003	-2.556480E-7
64.500000	-2.768356E-7
64.510002	-2.895249E-7
64.514999	-3.064051E-7
64.525002	-3.910391E-7
64.529999	-2.048910E-7
64.540001	-3.698515E-7
64.544998	-2.514571E-7
64.555000	-2.302695E-7
64.559998	-2.599554E-7
64.570000	-3.064051E-7
64.574997	-4.586764E-7
64.584999	-3.107125E-7
64.589996	-3.614696E-7
64.599998	-2.895249E-7
64.605003	-1.160661E-7
64.614998	-5.601905E-7
64.620003	-3.783498E-7
64.629997	-1.922017E-7
64.635002	-3.275927E-7
64.644997	-2.302695E-7
64.650002	-2.429588E-7
64.660004	-2.048910E-7
64.669998	-3.317837E-7
64.675003	-2.726447E-7
64.684998	-4.544854E-7
64.690002	-1.372537E-7
64.699997	-3.190944E-7
64.705002	-3.614696E-7
64.714996	-2.260786E-7
64.720001	-3.444729E-7
64.730003	-3.064051E-7
64.735001	-2.683373E-7
64.745003	-2.726447E-7
64.750000	-8.649658E-8
64.760002	-3.783498E-7
64.764999	-2.556480E-7
64.775002	-2.345769E-7
64.779999	-3.234018E-7
64.790001	-3.487803E-7
64.794998	-2.980232E-7
64.805000	-2.599554E-7
64.809998	-2.641464E-7
64.820000	-3.656605E-7
64.824997	-3.022142E-7
64.834999	-1.203734E-7
64.839996	-2.048910E-7
64.849998	-3.529713E-7
64.855003	-2.218876E-7
64.864998	-2.641464E-7
64.870003	-2.726447E-7
64.879997	-3.190944E-7
64.885002	-2.895249E-7
64.894997	-4.374888E-7
64.900002	-2.768356E-7
64.910004	-2.980232E-7
64.915001	-1.330627E-7
64.925003	-2.472661E-7
64.930000	-3.064051E-7
64.940002	-2.980232E-7
64.945000	-4.122267E-7
64.955002	-2.007000E-7
64.959999	-4.037283E-7
64.970001	-1.795124E-7
64.974998	-2.091983E-7
64.985001	-2.980232E-7
64.989998	-3.107125E-7
65.000000	-1.203734E-7
65.004997	-2.768356E-7
65.014999	-2.810266E-7
65.019997	-3.487803E-7
65.029999	-4.164176E-7
65.035004	-4.417961E-7
65.044998	-3.614696E-7
65.050003	-4.374888E-7
65.059998	-3.995374E-7
65.065002	-3.190944E-7
65.074997	-3.571622E-7
65.080002	-1.668232E-7
65.089996	-1.795124E-7
65.095001	-2.937159E-7
65.105003	-2.641464E-7
65.110001	-2.218876E-7
65.120003	-3.910391E-7
65.125000	-3.825407E-7
65.135002	-1.118751E-7
65.139999	-2.302695E-7
65.150002	-3.234018E-7
65.154999	-3.529713E-7
65.165001	-3.487803E-7
65.169998	-3.190944E-7
65.180000	-3.995374E-7
65.184998	-1.880107E-7
65.195000	-2.726447E-7
65.199997	-1.965091E-7
65.209999	-1.838198E-7
65.214996	-8.230563E-8
65.224998	-3.022142E-7
65.230003	-3.022142E-7
65.239998	-2.514571E-7
65.245003	-1.838198E-7
65.254997	-2.641464E-7
65.260002	-4.374888E-7
65.269997	-2.133893E-7
65.275002	-1.160661E-7
65.285004	-2.599554E-7
65.290001	-2.514571E-7
65.300003	-3.275927E-7
65.305000	-3.995374E-7
65.315002	-3.656605E-7
65.320000	-2.133893E-7
65.330002	-4.840549E-7
65.334999	-2.683373E-7
65.345001	-2.345769E-7
65.349998	-3.022142E-7
65.360001	-2.641464E-7
65.364998	-2.429588E-7
65.375000	-2.302695E-7
65.379997	-2.175802E-7
65.389999	-2.683373E-7
65.394997	-2.683373E-7
65.404999	-2.175802E-7
65.410004	-2.007000E-7
65.419998	-2.726447E-7
65.425003	-1.838198E-7
65.434998	-2.260786E-7
65.440002	-1.668232E-7
65.449997	-4.423782E-8
65.455002	-3.107125E-7
65.464996	-8.649658E-8
65.470001	-1.753215E-7
65.480003	-2.175802E-7
65.485001	-4.332978E-7
65.495003	-2.937159E-7
65.500000	-3.952300E-7
65.510002	-4.079193E-7
65.514999	-2.175802E-7
65.525002	-2.345769E-7
65.529999	-1.795124E-7
65.540001	-1.711305E-7
65.544998	-1.668232E-7
65.555000	-1.287553E-7
65.559998	-3.022142E-7
65.570000	-3.698515E-7
65.574997	-2.387678E-7
65.584999	-2.091983E-7
65.589996	-2.472661E-7
65.599998	-2.895249E-7
65.605003	-2.260786E-7
65.614998	-3.656605E-7
65.620003	-3.529713E-7
65.629997	-2.514571E-7
65.635002	-1.499429E-7
65.644997	-2.175802E-7
65.650002	-6.542541E-8
65.660004	-2.726447E-7
65.665001	-2.599554E-7
65.675003	-3.190944E-7
65.680000	-3.571622E-7
65.690002	-3.154855E-8
65.695000	-4.122267E-7
65.705002	-3.275927E-7
65.709999	-2.641464E-7
65.720001	-4.079193E-7
65.724998	-2.218876E-7
65.735001	-2.683373E-7
65.739998	-3.995374E-7
65.750000	-2.514571E-7
65.754997	-1.922017E-7
65.764999	-2.937159E-7
65.769997	-1.922017E-7
65.779999	-2.091983E-7
65.785004	-2.514571E-7
65.794998	-1.626322E-7
65.800003	-2.641464E-7
65.809998	-3.487803E-7
65.815002	-4.206086E-7
65.824997	-2.218876E-7
65.830002	-3.360910E-7
65.839996	-1.922017E-7
65.845001	-3.107125E-7
65.855003	-1.838198E-7
65.860001	-2.007000E-7
65.870003	-2.387678E-7
65.875000	-3.360910E-7
65.885002	-2.937159E-7
65.889999	-2.091983E-7
65.900002	-1.795124E-7
65.904999	-3.656605E-7
65.915001	-2.091983E-7
65.919998	-2.683373E-7
65.930000	-3.698515E-7
65.934998	-3.783498E-7
65.945000	-2.345769E-7
65.949997	-1.795124E-7
65.959999	-2.514571E-7
65.964996	-4.671747E-7
65.974998	-3.149034E-7
65.980003	-2.895249E-7
65.989998	-2.091983E-7
65.995003	-2.387678E-7
66.004997	-3.022142E-7
66.010002	-1.287553E-7
66.019997	-3.190944E-7
66.025002	-2.514571E-7
66.035004	-2.853340E-7
66.040001	-2.387678E-7
66.050003	-3.529713E-7
66.055000	-1.922017E-7
66.065002	-2.472661E-7
66.070000	-2.429588E-7
66.080002	-1.330627E-7
66.084999	-1.626322E-7
66.095001	1.071021E-8
66.099998	-1.838198E-7
66.110001	-9.080395E-8
66.114998	-7.380731E-8
66.125000	-4.374888E-7
66.129997	-1.076842E-7
66.139999	-1.076842E-7
66.144997	-1.880107E-7
66.154999	-2.937159E-7
66.160004	-2.133893E-7
66.169998	-8.230563E-8
66.175003	2.328306E-9
66.184998	-1.795124E-7
66.190002	-1.372537E-7
66.199997	-1.287553E-7
66.205002	-1.626322E-7
66.214996	-1.287553E-7
66.220001	-3.402820E-7
66.230003	-8.230563E-8
66.235001	5.308539E-8
66.245003	-6.542541E-8
66.250000	-1.457520E-7
66.260002	-2.472661E-7
66.264999	-2.768356E-7
66.275002	-2.472661E-7
66.279999	-1.795124E-7
66.290001	-1.414446E-7
66.294998	-1.668232E-7
66.305000	-2.514571E-7
66.309998	-9.080395E-8
66.320000	-1.330627E-7
66.324997	-2.302695E-7
66.334999	1.038425E-7
66.339996	-8.649658E-8
66.349998	-3.571622E-7
66.355003	-6.542541E-8
66.364998	-9.918585E-8
66.370003	-4.004687E-8
66.379997	-2.514571E-7
66.385002	1.501758E-8
66.394997	-6.961636E-8
66.400002	-1.922017E-7
66.410004	-5.273614E-8
66.415001	8.684583E-8
66.425003	-4.842877E-8
66.430000	-6.542541E-8
66.440002	-5.692709E-8
66.445000	-1.034932E-7
66.455002	-8.230563E-8
66.459999	-2.895249E-7
66.470001	1.071021E-8
66.474998	-1.979060E-9
66.485001	-1.499429E-7
66.489998	1.165317E-7
66.500000	-1.753215E-7
66.504997	-6.542541E-8
66.514999	-2.133893E-7
66.519997	-1.584413E-7
66.529999	3.189780E-8
66.535004	-1.076842E-7
66.544998	4.458707E-8
66.550003	6.519258E-9
66.559998	3.189780E-8
66.565002	3.608875E-8
66.574997	8.684583E-8
66.580002	4.039612E-8
66.589996	6.146729E-8
66.595001	8.265488E-8
66.605003	-2.735760E-8
66.610001	2.770685E-8
66.620003	1.207227E-7
66.625000	5.727634E-8
66.635002	4.458707E-8
66.639999	5.308539E-8
66.650002	1.165317E-7
66.654999	2.856832E-7
66.665001	3.448222E-7
66.669998	1.798617E-7
66.680000	9.953510E-8
66.684998	8.265488E-8
66.695000	2.686866E-7
66.699997	1.122244E-7
66.709999	9.534415E-8
66.714996	1.841690E-7
66.724998	3.702007E-7
66.730003	1.671724E-7
66.739998	2.137385E-7
66.745003	9.115320E-8
66.754997	2.559973E-7
66.760002	3.110617E-7
66.769997	2.771849E-7
66.775002	3.067544E-7
66.785004	4.927861E-7
66.790001	3.870809E-7
66.800003	2.010493E-7
66.805000	3.913883E-7
66.815002	3.067544E-7
66.820000	3.533205E-7
66.830002	3.660098E-7
66.834999	4.167669E-7
66.845001	3.321329E-7
66.849998	3.828900E-7
66.860001	3.533205E-7
66.864998	3.997702E-7
66.875000	4.082685E-7
66.879997	1.883600E-7
66.889999	5.308539E-7
66.894997	5.181646E-7
66.904999	5.012844E-7
66.910004	5.732290E-7
66.919998	6.281771E-7
66.925003	6.408663E-7
66.934998	5.943002E-7
66.940002	4.505273E-7
66.949997	6.789342E-7
66.955002	6.408663E-7
66.964996	6.789342E-7
66.970001	6.831251E-7
66.980003	6.281771E-7
66.985001	7.170020E-7
66.995003	7.550698E-7
67.000000	8.142088E-7
67.010002	8.776551E-7
67.014999	8.564675E-7
67.025002	8.945353E-7
67.029999	9.115320E-7
67.040001	9.411015E-7
67.044998	8.988427E-7
67.055000	8.480856E-7
67.059998	7.719500E-7
67.070000	9.537907E-7
67.074997	1.152512E-6
67.084999	1.050998E-6
67.089996	1.059496E-6
67.099998	1.046807E-6
67.105003	1.029926E-6
67.114998	1.152512E-6
67.120003	1.296285E-6
67.129997	1.397799E-6
67.135002	1.431676E-6
67.144997	1.351349E-6
67.150002	1.325971E-6
67.160004	1.292094E-6
67.165001	1.313281E-6
67.175003	1.372420E-6
67.180000	1.270906E-6
67.190002	1.444365E-6
67.195000	1.528882E-6
67.205002	1.698034E-6
67.214996	1.334352E-6
67.220001	1.545763E-6
67.230003	1.698034E-6
67.235001	1.748791E-6
67.245003	1.867185E-6
67.250000	1.816428E-6
67.260002	1.871493E-6
67.264999	1.930632E-6
67.275002	1.968700E-6
67.279999	1.989887E-6
67.290001	2.201297E-6
67.294998	2.074405E-6
67.305000	2.087094E-6
67.309998	2.175919E-6
67.320000	2.070214E-6
67.324997	2.273126E-6
67.334999	2.184417E-6
67.339996	2.323883E-6
67.349998	2.302811E-6
67.355003	2.400018E-6
67.364998	2.607238E-6
67.370003	2.662186E-6
67.379997	2.670684E-6
67.385002	2.586166E-6
67.394997	2.899091E-6
67.400002	2.865214E-6
67.410004	2.776389E-6
67.415001	2.915971E-6
67.425003	3.233086E-6
67.430000	3.169640E-6
67.440002	3.030174E-6
67.445000	3.148569E-6
67.455002	3.207708E-6
67.459999	3.457302E-6
67.470001	3.393856E-6
67.474998	3.601075E-6
67.485001	3.723660E-6
67.489998	3.740541E-6
67.500000	3.732159E-6
67.504997	3.909692E-6
67.514999	3.825175E-6
67.519997	3.897003E-6
67.529999	4.222617E-6
67.535004	4.235306E-6
67.544998	4.315749E-6
67.550003	4.374888E-6
67.559998	4.493282E-6
67.565002	4.552538E-6
67.574997	4.658243E-6
67.580002	5.017733E-6
67.589996	4.928908E-6
67.595001	4.992355E-6
67.605003	5.191076E-6
67.610001	5.127629E-6
67.620003	5.241833E-6
67.625000	5.339039E-6
67.635002	5.597016E-6
67.639999	5.529379E-6
67.650002	5.639275E-6
67.654999	5.897251E-6
67.665001	6.260932E-6
67.669998	5.990267E-6
67.680000	6.392016E-6
67.684998	6.442773E-6
67.695000	6.578164E-6
67.699997	6.578164E-6
67.709999	6.920658E-6
67.714996	6.924849E-6
67.724998	7.356168E-6
67.730003	7.191324E-6
67.739998	7.297029E-6
67.745003	7.516937E-6
67.754997	7.821363E-6
67.760002	7.690280E-6
67.769997	8.159666E-6
67.775002	7.939758E-6
67.785004	8.481089E-6
67.790001	8.447212E-6
67.800003	8.730567E-6
67.805000	8.764444E-6
67.815002	8.980045E-6
67.820000	9.170384E-6
67.830002	9.343727E-6
67.834999	9.521376E-6
67.845001	9.804731E-6
67.849998	1.002883E-5
67.860001	1.012604E-5
67.864998	1.035025E-5
67.875000	1.051091E-5
67.879997	1.064199E-5
67.889999	1.078576E-5
67.894997	1.101417E-5
67.904999	1.133978E-5
67.910004	1.149205E-5
67.919998	1.180917E-5
67.925003	1.191907E-5
67.934998	1.212629E-5
67.940002	1.238857E-5
67.949997	1.261686E-5
67.955002	1.282827E-5
67.964996	1.319626E-5
67.970001	1.328497E-5
67.980003	1.364027E-5
67.985001	1.388974E-5
67.995003	1.411384E-5
68.000000	1.426192E-5
68.010002	1.460442E-5
68.014999	1.487928E-5
68.025002	1.527683E-5
68.029999	1.530221E-5
68.040001	1.559814E-5
68.044998	1.591106E-5
68.055000	1.633819E-5
68.059998	1.652003E-5
68.070000	1.679489E-5
68.074997	1.704448E-5
68.084999	1.759420E-5
68.089996	1.772947E-5
68.099998	1.802552E-5
68.105003	1.833844E-5
68.114998	1.873600E-5
68.120003	1.904042E-5
68.129997	1.953100E-5
68.135002	1.969596E-5
68.144997	2.015685E-5
68.150002	2.034288E-5
68.160004	2.109993E-5
68.165001	2.131984E-5
68.175003	2.164114E-5
68.180000	2.181460E-5
68.190002	2.240238E-5
68.195000	2.266036E-5
68.205002	2.300704E-5
68.209999	2.351031E-5
68.220001	2.386549E-5
68.224998	2.410659E-5
68.235001	2.491428E-5
68.239998	2.506224E-5
68.250000	2.548099E-5
68.254997	2.579391E-5
68.264999	2.630136E-5
68.269997	2.670311E-5
68.279999	2.753618E-5
68.285004	2.753187E-5
68.294998	2.821698E-5
68.300003	2.864830E-5
68.309998	2.928264E-5
68.315002	2.940523E-5
68.324997	3.028905E-5
68.330002	3.041176E-5
68.339996	3.107148E-5
68.345001	3.143516E-5
68.355003	3.184529E-5
68.360001	3.250921E-5
68.370003	3.297022E-5
68.375000	3.341842E-5
68.385002	3.430224E-5
68.389999	3.425998E-5
68.400002	3.518607E-5
68.404999	3.579084E-5
68.415001	3.652659E-5
68.419998	3.679725E-5
68.430000	3.745267E-5
68.434998	3.798981E-5
68.445000	3.882288E-5
68.449997	3.950798E-5
68.459999	3.999425E-5
68.464996	4.042557E-5
68.474998	4.124595E-5
68.480003	4.149124E-5
68.489998	4.231592E-5
68.495003	4.286563E-5
68.504997	4.370720E-5
68.510002	4.424003E-5
68.519997	4.494202E-5
68.525002	4.587648E-5
68.535004	4.669698E-5
68.540001	4.734821E-5
68.550003	4.769920E-5
68.555000	4.831236E-5
68.565002	4.928070E-5
68.570000	4.988117E-5
68.580002	5.062972E-5
68.584999	5.152205E-5
68.595001	5.233393E-5
68.599998	5.281181E-5
68.610001	5.383941E-5
68.614998	5.448645E-5
68.625000	5.539565E-5
68.629997	5.578040E-5
68.639999	5.693489E-5
68.644997	5.787797E-5
68.654999	5.879975E-5
68.660004	5.924387E-5
68.669998	6.044062E-5
68.675003	6.096496E-5
68.684998	6.195868E-5
68.690002	6.366719E-5
68.699997	6.407313E-5
68.705002	6.501190E-5
68.714996	6.581540E-5
68.720001	6.649632E-5
68.730003	6.790867E-5
68.735001	6.839074E-5
68.745003	6.952405E-5
68.750000	7.047562E-5
68.760002	7.154548E-5
68.764999	7.256458E-5
68.775002	7.372757E-5
68.779999	7.466215E-5
68.790001	7.551210E-5
68.794998	7.650582E-5
68.805000	7.767300E-5
68.809998	7.847231E-5
68.820000	7.963099E-5
68.824997	8.060364E-5
68.834999	8.155091E-5
68.839996	8.254044E-5
68.849998	8.480286E-5
68.855003	8.517923E-5
68.864998	8.646899E-5
68.870003	8.759811E-5
68.879997	8.913316E-5
68.885002	8.996204E-5
68.894997	9.095995E-5
68.900002	9.238091E-5
68.910004	9.402586E-5
68.915001	9.463902E-5
68.925003	9.616138E-5
68.930000	9.725243E-5
68.940002	9.872834E-5
68.945000	9.964174E-5
68.955002	0.000101
68.959999	0.000102
68.970001	0.000104
68.974998	0.000105
68.985001	0.000107
68.989998	0.000109
69.000000	0.000110
69.004997	0.000112
69.014999	0.000113
69.019997	0.000114
69.029999	0.000116
69.035004	0.000117
69.044998	0.000118
69.050003	0.000119
69.059998	0.000121
69.065002	0.000122
69.074997	0.000125
69.080002	0.000125
69.089996	0.000127
69.095001	0.000129
69.105003	0.000131
69.110001	0.000132
69.120003	0.000134
69.125000	0.000135
69.135002	0.000137
69.139999	0.000138
69.150002	0.000140
69.154999	0.000142
69.165001	0.000144
69.169998	0.000145
69.180000	0.000147
69.184998	0.000148
69.195000	0.000150
69.199997	0.000151
69.209999	0.000154
69.214996	0.000156
69.224998	0.000158
69.230003	0.000159
69.239998	0.000161
69.245003	0.000163
69.254997	0.000165
69.260002	0.000166
69.269997	0.000168
69.275002	0.000169
69.285004	0.000172
69.290001	0.000173
69.300003	0.000176
69.305000	0.000177
69.315002	0.000179
69.320000	0.000181
69.330002	0.000183
69.334999	0.000185
69.345001	0.000187
69.349998	0.000188
69.360001	0.000191
69.364998	0.000192
69.375000	0.000193
69.379997	0.000196
69.389999	0.000198
69.394997	0.000198
69.404999	0.000200
69.410004	0.000202
69.419998	0.000204
69.425003	0.000205
69.434998	0.000207
69.440002	0.000209
69.449997	0.000210
69.455002	0.000212
69.464996	0.000214
69.470001	0.000215
69.480003	0.000216
69.485001	0.000218
69.495003	0.000219
69.500000	0.000220
69.510002	0.000222
69.514999	0.000223
69.525002	0.000225
69.529999	0.000225
69.540001	0.000228
69.544998	0.000228
69.555000	0.000230
69.559998	0.000231
69.570000	0.000232
69.574997	0.000233
69.584999	0.000234
69.589996	0.000235
69.599998	0.000236
69.605003	0.000237
69.614998	0.000238
69.620003	0.000238
69.629997	0.000239
69.635002	0.000240
69.644997	0.000241
69.650002	0.000242
69.660004	0.000243
69.665001	0.000243
69.675003	0.000244
69.680000	0.000244
69.690002	0.000245
69.695000	0.000246
69.705002	0.000247
69.709999	0.000247
69.720001	0.000248
69.724998	0.000249
69.735001	0.000249
69.739998	0.000250
69.750000	0.000251
69.754997	0.000251
69.764999	0.000252
69.775002	0.000252
69.779999	0.000253
69.790001	0.000254
69.794998	0.000254
69.805000	0.000255
69.809998	0.000255
69.820000	0.000256
69.824997	0.000256
69.834999	0.000257
69.839996	0.000257
69.849998	0.000258
69.855003	0.000258
69.864998	0.000259
69.870003	0.000259
69.879997	0.000260
69.885002	0.000260
69.894997	0.000261
69.900002	0.000261
69.910004	0.000262
69.915001	0.000262
69.925003	0.000263
69.930000	0.000263
69.940002	0.000264
69.945000	0.000264
69.955002	0.000265
69.959999	0.000265
69.970001	0.000266
69.974998	0.000266
69.985001	0.000267
69.989998	0.000267
70.000000	0.000268
70.004997	0.000268
70.014999	0.000268
70.019997	0.000269
70.029999	0.000269
70.035004	0.000270
70.044998	0.000270
70.050003	0.000271
70.059998	0.000271
70.065002	0.000271
70.074997	0.000272
70.080002	0.000272
70.089996	0.000273
70.095001	0.000273
70.105003	0.000273
70.110001	0.000274
70.120003	0.000274
70.125000	0.000274
70.135002	0.000275
70.139999	0.000275
70.150002	0.000276
70.154999	0.000276
70.165001	0.000277
70.169998	0.000277
70.180000	0.000277
70.184998	0.000278
70.195000	0.000278
70.199997	0.000278
70.209999	0.000279
70.214996	0.000279
70.224998	0.000280
70.230003	0.000280
70.239998	0.000280
70.245003	0.000281
70.254997	0.000281
70.260002	0.000281
70.269997	0.000282
70.275002	0.000282
70.285004	0.000283
70.290001	0.000283
70.300003	0.000283
70.305000	0.000283
70.315002	0.000284
70.320000	0.000284
70.330002	0.000284
70.334999	0.000285
70.345001	0.000285
70.349998	0.000285
70.360001	0.000286
70.364998	0.000286
70.375000	0.000287
70.379997	0.000287
70.389999	0.000287
70.394997	0.000287
70.404999	0.000288
70.410004	0.000288
70.419998	0.000288
70.425003	0.000289
70.434998	0.000289
70.440002	0.000289
70.449997	0.000290
70.455002	0.000290
70.464996	0.000290
70.470001	0.000290
70.480003	0.000291
70.485001	0.000291
70.495003	0.000291
70.500000	0.000292
70.510002	0.000292
70.514999	0.000292
70.525002	0.000293
70.529999	0.000293
70.540001	0.000293
70.544998	0.000293
70.555000	0.000294
70.559998	0.000294
70.570000	0.000294
70.574997	0.000294
70.584999	0.000295
70.589996	0.000295
70.599998	0.000295
70.605003	0.000295
70.614998	0.000296
70.620003	0.000296
70.629997	0.000297
70.635002	0.000297
70.644997	0.000297
70.650002	0.000297
70.660004	0.000297
70.665001	0.000298
70.675003	0.000298
70.680000	0.000298
70.690002	0.000299
70.695000	0.000299
70.705002	0.000299
70.709999	0.000299
70.720001	0.000300
70.724998	0.000300
70.735001	0.000300
70.739998	0.000300
70.750000	0.000301
70.754997	0.000301
70.764999	0.000301
70.769997	0.000301
70.779999	0.000301
70.785004	0.000302
70.794998	0.000302
70.800003	0.000302
70.809998	0.000302
70.815002	0.000303
70.824997	0.000303
70.830002	0.000303
70.839996	0.000303
70.845001	0.000304
70.855003	0.000304
70.860001	0.000304
70.870003	0.000304
70.875000	0.000304
70.885002	0.000305
70.889999	0.000305
70.900002	0.000305
70.904999	0.000305
70.915001	0.000306
70.919998	0.000306
70.930000	0.000306
70.934998	0.000306
70.945000	0.000306
70.949997	0.000307
70.959999	0.000307
70.964996	0.000307
70.974998	0.000307
70.980003	0.000307
70.989998	0.000308
70.995003	0.000308
71.004997	0.000308
71.010002	0.000308
71.019997	0.000309
71.025002	0.000309
71.035004	0.000309
71.040001	0.000309
71.050003	0.000309
71.055000	0.000310
71.065002	0.000310
71.070000	0.000310
71.080002	0.000310
71.084999	0.000310
71.095001	0.000310
71.099998	0.000311
71.110001	0.000311
71.114998	0.000311
71.125000	0.000311
71.129997	0.000311
71.139999	0.000312
71.144997	0.000312
71.154999	0.000312
71.160004	0.000312
71.169998	0.000312
71.175003	0.000313
71.184998	0.000313
71.190002	0.000313
71.199997	0.000313
71.205002	0.000313
71.214996	0.000314
71.220001	0.000314
71.230003	0.000314
71.235001	0.000314
71.245003	0.000314
71.250000	0.000314
71.260002	0.000315
71.264999	0.000315
71.275002	0.000315
71.279999	0.000315
71.290001	0.000315
71.294998	0.000315
71.305000	0.000316
71.309998	0.000316
71.320000	0.000316
71.324997	0.000316
71.334999	0.000316
71.339996	0.000316
71.349998	0.000317
71.355003	0.000317
71.364998	0.000317
71.370003	0.000317
71.379997	0.000317
71.385002	0.000317
71.394997	0.000318
71.400002	0.000318
71.410004	0.000318
71.415001	0.000318
71.425003	0.000318
71.430000	0.000318
71.440002	0.000319
71.445000	0.000319
71.455002	0.000319
71.459999	0.000319
71.470001	0.000319
71.474998	0.000319
71.485001	0.000320
71.489998	0.000320
71.500000	0.000320
71.504997	0.000320
71.514999	0.000320
71.519997	0.000320
71.529999	0.000321
71.535004	0.000321
71.544998	0.000321
71.550003	0.000321
71.559998	0.000321
71.565002	0.000321
71.574997	0.000321
71.580002	0.000321
71.589996	0.000322
71.595001	0.000322
71.605003	0.000322
71.610001	0.000322
71.620003	0.000322
71.625000	0.000322
71.635002	0.000323
71.639999	0.000323
71.650002	0.000323
71.654999	0.000323
71.665001	0.000323
71.669998	0.000323
71.680000	0.000323
71.684998	0.000323
71.695000	0.000324
71.699997	0.000324
71.709999	0.000324
71.714996	0.000324
71.724998	0.000324
71.730003	0.000324
71.739998	0.000325
71.745003	0.000325
71.754997	0.000325
71.760002	0.000325
71.769997	0.000325
71.775002	0.000325
71.785004	0.000325
71.790001	0.000325
71.800003	0.000326
71.805000	0.000326
71.815002	0.000326
71.820000	0.000326
71.830002	0.000326
71.834999	0.000326
71.845001	0.000326
71.849998	0.000326
71.860001	0.000327
71.864998	0.000327
71.875000	0.000327
71.879997	0.000327
71.889999	0.000327
71.894997	0.000327
71.904999	0.000328
71.910004	0.000327
71.919998	0.000328
71.925003	0.000328
71.934998	0.000328
71.940002	0.000328
71.949997	0.000328
71.955002	0.000328
71.964996	0.000328
71.970001	0.000329
71.980003	0.000329
71.985001	0.000329
71.995003	0.000329
72.000000	0.000329
72.010002	0.000329
72.014999	0.000329
72.025002	0.000329
72.029999	0.000329
72.040001	0.000330
72.044998	0.000330
72.055000	0.000330
72.059998	0.000330
72.070000	0.000330
72.074997	0.000330
72.084999	0.000330
72.089996	0.000330
72.099998	0.000331
72.105003	0.000331
72.114998	0.000331
72.120003	0.000331
72.129997	0.000331
72.135002	0.000331
72.144997	0.000331
72.150002	0.000331
72.160004	0.000331
72.165001	0.000332
72.175003	0.000332
72.180000	0.000332
72.190002	0.000332
72.195000	0.000332
72.205002	0.000332
72.209999	0.000332
72.220001	0.000332
72.224998	0.000332
72.235001	0.000333
72.239998	0.000333
72.250000	0.000333
72.254997	0.000333
72.264999	0.000333
72.269997	0.000333
72.279999	0.000333
72.285004	0.000333
72.294998	0.000333
72.300003	0.000333
72.309998	0.000334
72.315002	0.000334
72.324997	0.000334
72.334999	0.000334
72.339996	0.000334
72.349998	0.000334
72.355003	0.000334
72.364998	0.000334
72.370003	0.000334
72.379997	0.000335
72.385002	0.000335
72.394997	0.000335
72.400002	0.000335
72.410004	0.000335
72.415001	0.000335
72.425003	0.000335
72.430000	0.000335
72.440002	0.000335
72.445000	0.000335
72.455002	0.000336
72.459999	0.000336
72.470001	0.000336
72.474998	0.000336
72.485001	0.000336
72.489998	0.000336
72.500000	0.000336
72.504997	0.000336
72.514999	0.000336
72.519997	0.000336
72.529999	0.000337
72.535004	0.000337
72.544998	0.000337
72.550003	0.000337
72.559998	0.000337
72.565002	0.000337
72.574997	0.000337
72.580002	0.000337
72.589996	0.000337
72.595001	0.000337
72.605003	0.000337
72.610001	0.000337
72.620003	0.000338
72.625000	0.000338
72.635002	0.000338
72.639999	0.000338
72.650002	0.000338
72.654999	0.000338
72.665001	0.000338
72.669998	0.000338
72.680000	0.000338
72.684998	0.000338
72.695000	0.000339
72.699997	0.000339
72.709999	0.000339
72.714996	0.000339
72.724998	0.000339
72.730003	0.000339
72.739998	0.000339
72.745003	0.000339
72.754997	0.000339
72.760002	0.000339
72.769997	0.000339
72.775002	0.000339
72.785004	0.000340
72.790001	0.000340
72.800003	0.000340
72.805000	0.000340
72.815002	0.000340
72.820000	0.000340
72.830002	0.000340
72.834999	0.000340
72.845001	0.000340
72.849998	0.000340
72.860001	0.000340
72.864998	0.000340
72.875000	0.000341
72.879997	0.000341
72.889999	0.000341
72.894997	0.000341
72.904999	0.000341
72.910004	0.000341
72.919998	0.000341
72.925003	0.000341
72.934998	0.000341
72.940002	0.000341
72.949997	0.000341
72.955002	0.000341
72.964996	0.000341
72.970001	0.000341
72.980003	0.000342
72.985001	0.000342
72.995003	0.000342
73.000000	0.000342
73.010002	0.000342
73.014999	0.000342
73.025002	0.000342
73.029999	0.000342
73.040001	0.000342
73.044998	0.000342
73.055000	0.000342
73.059998	0.000342
73.070000	0.000342
73.074997	0.000343
73.084999	0.000343
73.089996	0.000343
73.099998	0.000343
73.105003	0.000343
73.114998	0.000343
73.120003	0.000343
73.129997	0.000343
73.135002	0.000343
73.144997	0.000343
73.150002	0.000343
73.160004	0.000343
73.165001	0.000343
73.175003	0.000343
73.180000	0.000344
73.190002	0.000344
73.195000	0.000344
73.205002	0.000344
73.209999	0.000344
73.220001	0.000344
73.224998	0.000344
73.235001	0.000344
73.239998	0.000344
73.250000	0.000344
73.254997	0.000344
73.264999	0.000344
73.269997	0.000344
73.279999	0.000344
73.285004	0.000344
73.294998	0.000344
73.300003	0.000344
73.309998	0.000345
73.315002	0.000345
73.324997	0.000345
73.330002	0.000345
73.339996	0.000345
73.345001	0.000345
73.355003	0.000345
73.360001	0.000345
73.370003	0.000345
73.375000	0.000345
73.385002	0.000345
73.389999	0.000345
73.400002	0.000345
73.404999	0.000345
73.415001	0.000346
73.419998	0.000346
73.430000	0.000346
73.434998	0.000346
73.445000	0.000346
73.449997	0.000346
73.459999	0.000346
73.464996	0.000346
73.474998	0.000346
73.480003	0.000346
73.489998	0.000346
73.495003	0.000346
73.504997	0.000346
73.510002	0.000346
73.519997	0.000346
73.525002	0.000346
73.535004	0.000346
73.540001	0.000346
73.550003	0.000347
73.555000	0.000347
73.565002	0.000347
73.570000	0.000347
73.580002	0.000347
73.584999	0.000347
73.595001	0.000347
73.599998	0.000347
73.610001	0.000347
73.614998	0.000347
73.625000	0.000347
73.629997	0.000347
73.639999	0.000347
73.644997	0.000347
73.654999	0.000347
73.660004	0.000347
73.669998	0.000347
73.675003	0.000348
73.684998	0.000348
73.690002	0.000348
73.699997	0.000348
73.705002	0.000348
73.714996	0.000348
73.720001	0.000348
73.730003	0.000348
73.735001	0.000348
73.745003	0.000348
73.750000	0.000348
73.760002	0.000348
73.764999	0.000348
73.775002	0.000348
73.779999	0.000348
73.790001	0.000348
73.794998	0.000348
73.805000	0.000348
73.809998	0.000348
73.820000	0.000349
73.824997	0.000349
73.834999	0.000349
73.839996	0.000349
73.849998	0.000349
73.855003	0.000349
73.864998	0.000349
73.870003	0.000349
73.879997	0.000349
73.885002	0.000349
73.894997	0.000349
73.900002	0.000349
73.910004	0.000349
73.915001	0.000349
73.925003	0.000349
73.930000	0.000349
73.940002	0.000349
73.945000	0.000349
73.955002	0.000349
73.959999	0.000349
73.970001	0.000350
73.974998	0.000350
73.985001	0.000350
73.989998	0.000350
74.000000	0.000350
74.004997	0.000350
74.014999	0.000350
74.019997	0.000350
74.029999	0.000350
74.035004	0.000350
74.044998	0.000350
74.050003	0.000350
74.059998	0.000350
74.065002	0.000350
74.074997	0.000350
74.080002	0.000350
74.089996	0.000350
74.095001	0.000350
74.105003	0.000350
74.110001	0.000350
74.120003	0.000350
74.125000	0.000350
74.135002	0.000351
74.139999	0.000351
74.150002	0.000351
74.154999	0.000351
74.165001	0.000351
74.169998	0.000351
74.180000	0.000351
74.184998	0.000351
74.195000	0.000351
74.199997	0.000351
74.209999	0.000351
74.214996	0.000351
74.224998	0.000351
74.230003	0.000351
74.239998	0.000351
74.245003	0.000351
74.254997	0.000351
74.260002	0.000351
74.269997	0.000351
74.275002	0.000351
74.285004	0.000351
74.290001	0.000351
74.300003	0.000352
74.305000	0.000351
74.315002	0.000352
74.320000	0.000352
74.330002	0.000352
74.334999	0.000352
74.345001	0.000352
74.349998	0.000352
74.360001	0.000352
74.364998	0.000352
74.375000	0.000352
74.379997	0.000352
74.389999	0.000352
74.394997	0.000352
74.404999	0.000352
74.410004	0.000352
74.419998	0.000352
74.425003	0.000352
74.434998	0.000352
74.440002	0.000352
74.449997	0.000352
74.455002	0.000352
74.464996	0.000352
74.470001	0.000352
74.480003	0.000352
74.485001	0.000353
74.495003	0.000353
74.500000	0.000353
74.510002	0.000353
74.514999	0.000353
74.525002	0.000353
74.529999	0.000353
74.540001	0.000353
74.544998	0.000353
74.555000	0.000353
74.559998	0.000353
74.570000	0.000353
74.574997	0.000353
74.584999	0.000353
74.589996	0.000353
74.599998	0.000353
74.605003	0.000353
74.614998	0.000353
74.620003	0.000353
74.629997	0.000353
74.635002	0.000353
74.644997	0.000353
74.650002	0.000353
74.660004	0.000353
74.665001	0.000353
74.675003	0.000353
74.680000	0.000353
74.690002	0.000353
74.695000	0.000353
74.705002	0.000354
74.709999	0.000354
74.720001	0.000354
74.724998	0.000354
74.735001	0.000354
74.739998	0.000354
74.750000	0.000354
74.754997	0.000354
74.764999	0.000354
74.769997	0.000354
74.779999	0.000354
74.785004	0.000354
74.794998	0.000354
74.800003	0.000354
74.809998	0.000354
74.815002	0.000354
74.824997	0.000354
74.830002	0.000354
74.839996	0.000354
74.845001	0.000354
74.855003	0.000354
74.860001	0.000354
74.870003	0.000354
74.875000	0.000354
74.885002	0.000354
74.889999	0.000354
74.900002	0.000354
74.910004	0.000355
74.915001	0.000354
74.925003	0.000354
74.930000	0.000354
74.940002	0.000355
74.945000	0.000355
74.955002	0.000355
74.959999	0.000355
74.970001	0.000355
74.974998	0.000355
74.985001	0.000355
74.989998	0.000355
75.000000	0.000355
75.004997	0.000355
