% Langmuir characteristic curve

% U (Volt)	I (A)
60.000000	-3.023306E-7
60.009998	-4.376052E-7
60.014999	-3.065215E-7
60.025002	-3.023306E-7
60.029999	-3.530877E-7
60.040001	-3.277091E-7
60.044998	-3.150199E-7
60.055000	-3.699679E-7
60.060001	-3.487803E-7
60.070000	-3.741588E-7
60.075001	-5.391194E-7
60.084999	-4.546018E-7
60.090000	-3.868481E-7
60.099998	-3.403984E-7
60.105000	-3.319001E-7
60.115002	-3.234018E-7
60.119999	-2.769521E-7
60.130001	-1.669396E-7
60.134998	-3.784662E-7
60.145000	-3.192108E-7
60.150002	-3.487803E-7
60.160000	-4.376052E-7
60.165001	-4.672911E-7
60.174999	-3.826572E-7
60.180000	-4.249159E-7
60.189999	-3.403984E-7
60.195000	-5.264301E-7
60.205002	-3.360910E-7
60.209999	-2.008164E-7
60.220001	-3.657769E-7
60.224998	-3.741588E-7
60.235001	-2.303859E-7
60.240002	-2.388842E-7
60.250000	-5.010515E-7
60.255001	-5.053589E-7
60.264999	-3.826572E-7
60.270000	-5.264301E-7
60.279999	-3.953464E-7
60.285000	-3.826572E-7
60.294998	-3.911555E-7
60.299999	-3.150199E-7
60.310001	-4.038448E-7
60.314999	-4.883623E-7
60.325001	-3.614696E-7
60.330002	-3.360910E-7
60.340000	-3.868481E-7
60.345001	-3.572786E-7
60.355000	-3.150199E-7
60.360001	-2.938323E-7
60.369999	-3.657769E-7
60.375000	-3.953464E-7
60.384998	-1.839362E-7
60.389999	-4.461035E-7
60.400002	-3.614696E-7
60.404999	-3.487803E-7
60.415001	-4.419126E-7
60.419998	-4.629837E-7
60.430000	-4.756730E-7
60.435001	-3.065215E-7
60.445000	-4.883623E-7
60.450001	-4.672911E-7
60.459999	-4.926696E-7
60.465000	-3.572786E-7
60.474998	-2.938323E-7
60.480000	-3.065215E-7
60.490002	-3.360910E-7
60.494999	-3.150199E-7
60.505001	-2.515735E-7
60.509998	-4.461035E-7
60.520000	-3.487803E-7
60.525002	-4.502945E-7
60.535000	-3.319001E-7
60.540001	-2.008164E-7
60.549999	-4.292233E-7
60.555000	-4.799804E-7
60.564999	-4.334142E-7
60.570000	-5.222391E-7
60.580002	-3.445894E-7
60.584999	-3.487803E-7
60.595001	-4.122267E-7
60.599998	-3.192108E-7
60.610001	-2.938323E-7
60.615002	-3.445894E-7
60.625000	-2.388842E-7
60.630001	-5.053589E-7
60.639999	-3.784662E-7
60.645000	-3.445894E-7
60.654999	-3.403984E-7
60.660000	-3.107125E-7
60.669998	-2.938323E-7
60.674999	-5.053589E-7
60.685001	-3.360910E-7
60.689999	-4.461035E-7
60.700001	-4.038448E-7
60.705002	-1.754379E-7
60.715000	-3.911555E-7
60.720001	-5.222391E-7
60.730000	-4.334142E-7
60.735001	-5.349284E-7
60.744999	-3.699679E-7
60.750000	-6.998889E-7
60.759998	-3.699679E-7
60.764999	-1.881272E-7
60.775002	-3.953464E-7
60.779999	-1.839362E-7
60.790001	-2.896413E-7
60.794998	-4.841713E-7
60.805000	-3.360910E-7
60.810001	-3.741588E-7
60.820000	-4.165340E-7
60.825001	-3.911555E-7
60.834999	-3.699679E-7
60.840000	-5.095499E-7
60.849998	-2.261950E-7
60.855000	-5.349284E-7
60.865002	-3.445894E-7
60.869999	-3.699679E-7
60.880001	-3.699679E-7
60.884998	-4.038448E-7
60.895000	-4.165340E-7
60.900002	-3.741588E-7
60.910000	-3.530877E-7
60.915001	-2.938323E-7
60.924999	-2.896413E-7
60.930000	-3.445894E-7
60.939999	-2.050074E-7
60.945000	-3.614696E-7
60.955002	-5.434267E-7
60.959999	-3.614696E-7
60.970001	-3.911555E-7
60.974998	-4.207250E-7
60.985001	-3.826572E-7
60.990002	-4.968606E-7
61.000000	-5.264301E-7
61.005001	-1.669396E-7
61.014999	-4.672911E-7
61.020000	-4.122267E-7
61.029999	-3.487803E-7
61.035000	-3.277091E-7
61.044998	-3.107125E-7
61.049999	-4.334142E-7
61.060001	-4.080357E-7
61.064999	-3.319001E-7
61.075001	-4.629837E-7
61.080002	-4.122267E-7
61.090000	-3.657769E-7
61.095001	-4.165340E-7
61.105000	-3.784662E-7
61.110001	-3.319001E-7
61.119999	-3.826572E-7
61.125000	-3.234018E-7
61.134998	-3.065215E-7
61.139999	-3.657769E-7
61.150002	-2.769521E-7
61.154999	-3.445894E-7
61.165001	-3.953464E-7
61.169998	-4.926696E-7
61.180000	-3.614696E-7
61.185001	-4.968606E-7
61.195000	-4.207250E-7
61.200001	-4.122267E-7
61.209999	-3.360910E-7
61.215000	-4.672911E-7
61.224998	-3.107125E-7
61.230000	-5.518086E-7
61.240002	-5.941838E-7
61.244999	-3.403984E-7
61.255001	-3.023306E-7
61.259998	-3.023306E-7
61.270000	-4.461035E-7
61.275002	-3.530877E-7
61.285000	-2.980232E-7
61.290001	-3.234018E-7
61.299999	-2.599554E-7
61.305000	-3.699679E-7
61.314999	-6.913906E-7
61.320000	-4.756730E-7
61.330002	-3.530877E-7
61.334999	-5.137408E-7
61.345001	-3.065215E-7
61.349998	-4.461035E-7
61.360001	-3.911555E-7
61.365002	-1.458684E-7
61.375000	-4.334142E-7
61.380001	-3.741588E-7
61.389999	-4.799804E-7
61.395000	-2.726447E-7
61.404999	-3.657769E-7
61.410000	-4.968606E-7
61.419998	-3.657769E-7
61.424999	-3.403984E-7
61.435001	-3.953464E-7
61.439999	-3.911555E-7
61.450001	-2.050074E-7
61.455002	-3.150199E-7
61.465000	-4.165340E-7
61.470001	-4.841713E-7
61.480000	-4.419126E-7
61.485001	-3.657769E-7
61.494999	-4.841713E-7
61.500000	-3.023306E-7
61.509998	-4.334142E-7
61.514999	-4.714821E-7
61.525002	-5.518086E-7
61.529999	-5.095499E-7
61.540001	-4.080357E-7
61.544998	-3.784662E-7
61.555000	-3.572786E-7
61.560001	-3.614696E-7
61.570000	-3.530877E-7
61.575001	-3.277091E-7
61.584999	-4.756730E-7
61.590000	-3.360910E-7
61.599998	-3.699679E-7
61.605000	-1.669396E-7
61.615002	-3.911555E-7
61.619999	-3.445894E-7
61.630001	-3.699679E-7
61.634998	-4.165340E-7
61.645000	-3.487803E-7
61.650002	-4.546018E-7
61.660000	-4.714821E-7
61.665001	-3.572786E-7
61.674999	-4.038448E-7
61.680000	-4.038448E-7
61.689999	-3.150199E-7
61.695000	-3.487803E-7
61.705002	-3.277091E-7
61.709999	-3.530877E-7
61.720001	-1.500593E-7
61.724998	-3.277091E-7
61.735001	-4.419126E-7
61.740002	-3.572786E-7
61.750000	-4.038448E-7
61.755001	-5.222391E-7
61.764999	-4.968606E-7
61.770000	-4.629837E-7
61.779999	-3.911555E-7
61.785000	-3.995374E-7
61.794998	-4.841713E-7
61.799999	-3.065215E-7
61.810001	-3.023306E-7
61.814999	-3.403984E-7
61.825001	-3.614696E-7
61.830002	-3.150199E-7
61.840000	-4.376052E-7
61.845001	-4.926696E-7
61.855000	-4.249159E-7
61.860001	-3.487803E-7
61.869999	-3.995374E-7
61.875000	-3.911555E-7
61.884998	-3.530877E-7
61.889999	-3.150199E-7
61.900002	-2.980232E-7
61.904999	-4.122267E-7
61.915001	-3.995374E-7
61.919998	-2.811430E-7
61.930000	-3.192108E-7
61.935001	-3.234018E-7
61.945000	-1.585577E-7
61.950001	-3.699679E-7
61.959999	-5.180482E-7
61.965000	-5.307375E-7
61.974998	-4.883623E-7
61.980000	-3.360910E-7
61.990002	-3.530877E-7
61.994999	-5.349284E-7
62.005001	-2.938323E-7
62.009998	-3.530877E-7
62.020000	-3.277091E-7
62.025002	-1.881272E-7
62.035000	-4.038448E-7
62.040001	-4.799804E-7
62.049999	-3.107125E-7
62.055000	-2.008164E-7
62.064999	-3.445894E-7
62.070000	-2.980232E-7
62.080002	-3.107125E-7
62.084999	-3.192108E-7
62.095001	-3.360910E-7
62.099998	-5.095499E-7
62.110001	-3.699679E-7
62.115002	-5.180482E-7
62.125000	-3.784662E-7
62.130001	-4.799804E-7
62.139999	-3.234018E-7
62.145000	-3.107125E-7
62.154999	-4.038448E-7
62.160000	-3.487803E-7
62.169998	-3.107125E-7
62.174999	-3.360910E-7
62.185001	-1.585577E-7
62.189999	-3.277091E-7
62.200001	-3.445894E-7
62.205002	-3.826572E-7
62.215000	-4.122267E-7
62.220001	-3.530877E-7
62.230000	-3.192108E-7
62.235001	-4.334142E-7
62.244999	-4.080357E-7
62.250000	-4.756730E-7
62.259998	-3.360910E-7
62.264999	-3.445894E-7
62.275002	-3.953464E-7
62.279999	-5.010515E-7
62.290001	-3.403984E-7
62.294998	-2.811430E-7
62.305000	-3.657769E-7
62.310001	-4.419126E-7
62.320000	-3.911555E-7
62.325001	-3.784662E-7
62.334999	-4.419126E-7
62.340000	-3.995374E-7
62.349998	-2.176967E-7
62.355000	-3.784662E-7
62.365002	-2.938323E-7
62.369999	-3.445894E-7
62.380001	-4.714821E-7
62.384998	-3.699679E-7
62.395000	-2.980232E-7
62.400002	-3.277091E-7
62.410000	-4.714821E-7
62.415001	-3.445894E-7
62.424999	-3.403984E-7
62.430000	-4.376052E-7
62.439999	-4.968606E-7
62.445000	-3.487803E-7
62.455002	-3.065215E-7
62.459999	-4.249159E-7
62.470001	-3.530877E-7
62.474998	-4.968606E-7
62.485001	-2.853340E-7
62.490002	-3.360910E-7
62.500000	-3.234018E-7
62.505001	-2.599554E-7
62.514999	-1.669396E-7
62.520000	-4.587928E-7
62.529999	-2.938323E-7
62.535000	-4.968606E-7
62.544998	-5.476177E-7
62.549999	-3.487803E-7
62.560001	-5.222391E-7
62.564999	-4.334142E-7
62.575001	-3.487803E-7
62.580002	-3.826572E-7
62.590000	-2.896413E-7
62.595001	-2.726447E-7
62.605000	-3.487803E-7
62.610001	-4.883623E-7
62.619999	-2.599554E-7
62.625000	-3.023306E-7
62.634998	-1.712469E-7
62.639999	-1.712469E-7
62.650002	-3.445894E-7
62.654999	-5.053589E-7
62.665001	-4.883623E-7
62.669998	-5.264301E-7
62.680000	-2.684537E-7
62.685001	-3.953464E-7
62.695000	-3.360910E-7
62.700001	-5.137408E-7
62.709999	-3.657769E-7
62.715000	-3.403984E-7
62.724998	-3.487803E-7
62.730000	-3.657769E-7
62.740002	-2.261950E-7
62.744999	-2.769521E-7
62.755001	-3.192108E-7
62.759998	-2.980232E-7
62.770000	-2.980232E-7
62.775002	-4.672911E-7
62.785000	-2.050074E-7
62.790001	-6.575137E-7
62.799999	-5.053589E-7
62.805000	-5.391194E-7
62.814999	-3.699679E-7
62.820000	-1.288718E-7
62.830002	-3.868481E-7
62.834999	-3.530877E-7
62.845001	-4.461035E-7
62.849998	-2.726447E-7
62.860001	-6.322516E-7
62.865002	-2.726447E-7
62.875000	-3.614696E-7
62.880001	-4.968606E-7
62.889999	-3.953464E-7
62.895000	-3.572786E-7
62.904999	-1.754379E-7
62.910000	-5.349284E-7
62.919998	-2.938323E-7
62.924999	-1.923181E-7
62.935001	-4.587928E-7
62.939999	-2.980232E-7
62.950001	-2.557645E-7
62.955002	-3.953464E-7
62.965000	-4.419126E-7
62.970001	-4.502945E-7
62.980000	-3.403984E-7
62.985001	-1.712469E-7
62.994999	-4.376052E-7
63.000000	-3.953464E-7
63.009998	-1.923181E-7
63.014999	-4.080357E-7
63.025002	-3.192108E-7
63.029999	-3.953464E-7
63.040001	-4.080357E-7
63.044998	-1.839362E-7
63.055000	-3.192108E-7
63.060001	-3.234018E-7
63.070000	-3.150199E-7
63.075001	-2.938323E-7
63.084999	-2.853340E-7
63.090000	-3.065215E-7
63.099998	-4.968606E-7
63.105000	-5.053589E-7
63.115002	-4.207250E-7
63.119999	-5.391194E-7
63.130001	-1.923181E-7
63.134998	-5.095499E-7
63.145000	-4.799804E-7
63.150002	-3.911555E-7
63.160000	-3.277091E-7
63.165001	-2.050074E-7
63.174999	-2.599554E-7
63.180000	-2.811430E-7
63.189999	-3.107125E-7
63.195000	-3.657769E-7
63.205002	-3.614696E-7
63.209999	-4.419126E-7
63.220001	-4.207250E-7
63.224998	-4.799804E-7
63.235001	-3.530877E-7
63.240002	-2.388842E-7
63.250000	-3.911555E-7
63.255001	-3.868481E-7
63.264999	-3.911555E-7
63.270000	-2.008164E-7
63.279999	-3.614696E-7
63.285000	-1.458684E-7
63.294998	-3.192108E-7
63.299999	-4.376052E-7
63.310001	-4.672911E-7
63.314999	-3.107125E-7
63.325001	-3.403984E-7
63.330002	-2.938323E-7
63.340000	-3.911555E-7
63.345001	-3.487803E-7
63.355000	-3.741588E-7
63.360001	-4.756730E-7
63.369999	-3.360910E-7
63.375000	-3.192108E-7
63.384998	-3.023306E-7
63.389999	-3.234018E-7
63.400002	-2.642628E-7
63.404999	-2.430752E-7
63.415001	-3.023306E-7
63.419998	-1.373701E-7
63.430000	-2.896413E-7
63.435001	-3.023306E-7
63.445000	-1.458684E-7
63.450001	-4.714821E-7
63.459999	-4.419126E-7
63.465000	-3.572786E-7
63.474998	-5.264301E-7
63.480000	-4.292233E-7
63.490002	-3.487803E-7
63.494999	-3.319001E-7
63.505001	-2.769521E-7
63.509998	-2.599554E-7
63.520000	-3.445894E-7
63.525002	-1.415610E-7
63.535000	-4.461035E-7
63.540001	-3.150199E-7
63.549999	-3.277091E-7
63.555000	-4.038448E-7
63.564999	-4.165340E-7
63.570000	-3.530877E-7
63.580002	-3.319001E-7
63.584999	-3.741588E-7
63.595001	-2.938323E-7
63.599998	-3.614696E-7
63.610001	-1.796288E-7
63.615002	-3.192108E-7
63.625000	-3.868481E-7
63.630001	-2.938323E-7
63.639999	-2.303859E-7
63.645000	-1.161825E-7
63.654999	-2.811430E-7
63.660000	-1.500593E-7
63.669998	-1.500593E-7
63.674999	-2.726447E-7
63.685001	-3.023306E-7
63.689999	-3.741588E-7
63.700001	-3.487803E-7
63.705002	-5.137408E-7
63.715000	-3.995374E-7
63.720001	-3.826572E-7
63.730000	-1.669396E-7
63.735001	-2.896413E-7
63.744999	-2.599554E-7
63.750000	-1.373701E-7
63.759998	-3.023306E-7
63.764999	-2.726447E-7
63.775002	-4.419126E-7
63.779999	-3.953464E-7
63.790001	-3.487803E-7
63.794998	-4.841713E-7
63.805000	-3.614696E-7
63.810001	-4.419126E-7
63.820000	-2.980232E-7
63.825001	-3.741588E-7
63.834999	-2.599554E-7
63.840000	-2.726447E-7
63.849998	-2.388842E-7
63.855000	-3.023306E-7
63.865002	-3.699679E-7
63.869999	-5.222391E-7
63.880001	-3.403984E-7
63.884998	-1.288718E-7
63.895000	-4.038448E-7
63.900002	-3.277091E-7
63.910000	-3.911555E-7
63.915001	-2.684537E-7
63.924999	-3.487803E-7
63.930000	-3.530877E-7
63.939999	-3.192108E-7
63.945000	-3.784662E-7
63.955002	-4.629837E-7
63.959999	-3.487803E-7
63.970001	-2.896413E-7
63.974998	-2.093147E-7
63.985001	-4.502945E-7
63.990002	-4.376052E-7
64.000000	-2.557645E-7
64.004997	-2.896413E-7
64.014999	-3.277091E-7
64.019997	-2.346933E-7
64.029999	-4.587928E-7
64.035004	-3.953464E-7
64.044998	-3.995374E-7
64.050003	-4.038448E-7
64.059998	-3.319001E-7
64.065002	-4.165340E-7
64.074997	-3.360910E-7
64.080002	-4.502945E-7
64.089996	-2.220040E-7
64.095001	-2.515735E-7
64.105003	-2.388842E-7
64.110001	-2.220040E-7
64.120003	-2.557645E-7
64.125000	-3.192108E-7
64.135002	-3.826572E-7
64.139999	-4.376052E-7
64.150002	-3.699679E-7
64.154999	-2.008164E-7
64.165001	-4.080357E-7
64.169998	-4.038448E-7
64.180000	-3.150199E-7
64.184998	-3.192108E-7
64.195000	-2.430752E-7
64.199997	-2.557645E-7
64.209999	-3.234018E-7
64.214996	-3.192108E-7
64.224998	-2.430752E-7
64.230003	-3.360910E-7
64.239998	-4.546018E-7
64.245003	-4.672911E-7
64.254997	-3.868481E-7
64.260002	-6.364426E-7
64.269997	-1.627486E-7
64.275002	-3.445894E-7
64.285004	-4.165340E-7
64.290001	-3.699679E-7
64.300003	-2.853340E-7
64.305000	-2.093147E-7
64.315002	-2.557645E-7
64.320000	-2.599554E-7
64.330002	-2.599554E-7
64.334999	-2.938323E-7
64.345001	-2.642628E-7
64.349998	-1.331791E-7
64.360001	-2.684537E-7
64.364998	-1.881272E-7
64.375000	-3.487803E-7
64.379997	-4.165340E-7
64.389999	-2.726447E-7
64.394997	-2.008164E-7
64.404999	-3.657769E-7
64.410004	-1.458684E-7
64.419998	-2.599554E-7
64.425003	-4.122267E-7
64.434998	-2.473826E-7
64.440002	-2.430752E-7
64.449997	-2.430752E-7
64.455002	-3.107125E-7
64.464996	-4.419126E-7
64.470001	-4.038448E-7
64.480003	-3.065215E-7
64.485001	-3.403984E-7
64.495003	-4.587928E-7
64.500000	-4.038448E-7
64.510002	-4.207250E-7
64.514999	-2.896413E-7
64.525002	-2.599554E-7
64.529999	-3.403984E-7
64.540001	-4.165340E-7
64.544998	-3.277091E-7
64.555000	-2.642628E-7
64.559998	-3.487803E-7
64.570000	-3.234018E-7
64.574997	-3.360910E-7
64.584999	-2.980232E-7
64.589996	-1.669396E-7
64.599998	-3.657769E-7
64.605003	-2.515735E-7
64.614998	-2.980232E-7
64.620003	-3.150199E-7
64.629997	-3.530877E-7
64.635002	-3.657769E-7
64.644997	-2.473826E-7
64.650002	-1.161825E-7
64.660004	-3.699679E-7
64.669998	-2.896413E-7
64.675003	-2.515735E-7
64.684998	-2.726447E-7
64.690002	-2.515735E-7
64.699997	-3.403984E-7
64.705002	-5.010515E-7
64.714996	-3.530877E-7
64.720001	-3.065215E-7
64.730003	-4.799804E-7
64.735001	-1.458684E-7
64.745003	-3.403984E-7
64.750000	-2.726447E-7
64.760002	-1.288718E-7
64.764999	-2.430752E-7
64.775002	-3.319001E-7
64.779999	-2.135057E-7
64.790001	-2.388842E-7
64.794998	-1.161825E-7
64.805000	-2.388842E-7
64.809998	-2.853340E-7
64.820000	-2.684537E-7
64.824997	-3.277091E-7
64.834999	-3.868481E-7
64.839996	-3.150199E-7
64.849998	-6.618211E-7
64.855003	-3.445894E-7
64.864998	-3.277091E-7
64.870003	-5.010515E-7
64.879997	-1.204899E-7
64.885002	-2.938323E-7
64.894997	-2.599554E-7
64.900002	-2.261950E-7
64.910004	-2.684537E-7
64.915001	-1.542503E-7
64.925003	-4.376052E-7
64.930000	-3.572786E-7
64.940002	-3.023306E-7
64.945000	-3.826572E-7
64.955002	-3.826572E-7
64.959999	-4.799804E-7
64.970001	-3.657769E-7
64.974998	-1.627486E-7
64.985001	-2.853340E-7
64.989998	-2.388842E-7
65.000000	-2.726447E-7
65.004997	-4.165340E-7
65.014999	-3.107125E-7
65.019997	-2.980232E-7
65.029999	-2.093147E-7
65.035004	-1.161825E-7
65.044998	-2.853340E-7
65.050003	-2.811430E-7
65.059998	-2.769521E-7
65.065002	-4.502945E-7
65.074997	-4.292233E-7
65.080002	-3.360910E-7
65.089996	-3.657769E-7
65.095001	-2.938323E-7
65.105003	-3.403984E-7
65.110001	-3.150199E-7
65.120003	-3.150199E-7
65.125000	-3.445894E-7
65.135002	-2.599554E-7
65.139999	-2.346933E-7
65.150002	-3.023306E-7
65.154999	-2.557645E-7
65.165001	-3.192108E-7
65.169998	-1.712469E-7
65.180000	-3.445894E-7
65.184998	-3.319001E-7
65.195000	-4.714821E-7
65.199997	-3.107125E-7
65.209999	-3.277091E-7
65.214996	-2.176967E-7
65.224998	-2.938323E-7
65.230003	-3.699679E-7
65.239998	-2.684537E-7
65.245003	-2.853340E-7
65.254997	-8.242205E-8
65.260002	-2.220040E-7
65.269997	-2.050074E-7
65.275002	-2.980232E-7
65.285004	-3.826572E-7
65.290001	-3.657769E-7
65.300003	-3.319001E-7
65.305000	-3.107125E-7
65.315002	-3.403984E-7
65.320000	-2.220040E-7
65.330002	-3.107125E-7
65.334999	-9.930227E-8
65.345001	-2.515735E-7
65.349998	-3.953464E-7
65.360001	-3.277091E-7
65.364998	-2.853340E-7
65.375000	-2.093147E-7
65.379997	-3.319001E-7
65.389999	-2.896413E-7
65.394997	-1.542503E-7
65.404999	-3.868481E-7
65.410004	-3.530877E-7
65.419998	-3.741588E-7
65.425003	-4.419126E-7
65.434998	-6.195623E-7
65.440002	-3.065215E-7
65.449997	-2.642628E-7
65.455002	-2.050074E-7
65.464996	-2.811430E-7
65.470001	-2.220040E-7
65.480003	-9.511132E-8
65.485001	-3.277091E-7
65.495003	-2.769521E-7
65.500000	-2.473826E-7
65.510002	-3.319001E-7
65.514999	-1.627486E-7
65.525002	-3.572786E-7
65.529999	-3.150199E-7
65.540001	-4.587928E-7
65.544998	-3.150199E-7
65.555000	-2.599554E-7
65.559998	-2.769521E-7
65.570000	-2.261950E-7
65.574997	-2.938323E-7
65.584999	-1.966255E-7
65.589996	-2.220040E-7
65.599998	-2.769521E-7
65.605003	-3.360910E-7
65.614998	-4.207250E-7
65.620003	-3.911555E-7
65.629997	-2.220040E-7
65.635002	-1.373701E-7
65.644997	-3.107125E-7
65.650002	-3.192108E-7
65.660004	-2.938323E-7
65.665001	-2.430752E-7
65.675003	-3.953464E-7
65.680000	-2.050074E-7
65.690002	-3.065215E-7
65.695000	-1.034932E-7
65.705002	-2.050074E-7
65.709999	-2.473826E-7
65.720001	-2.346933E-7
65.724998	-4.038448E-7
65.735001	-4.926696E-7
65.739998	-2.938323E-7
65.750000	-4.419126E-7
65.754997	-3.234018E-7
65.764999	-3.487803E-7
65.769997	-4.038448E-7
65.779999	-1.034932E-7
65.785004	-2.220040E-7
65.794998	-3.911555E-7
65.800003	-2.050074E-7
65.809998	-1.712469E-7
65.815002	-2.557645E-7
65.824997	-4.207250E-7
65.830002	-2.557645E-7
65.839996	-4.292233E-7
65.845001	-4.376052E-7
65.855003	-2.769521E-7
65.860001	-1.373701E-7
65.870003	-4.714821E-7
65.875000	-2.853340E-7
65.885002	-2.261950E-7
65.889999	-2.853340E-7
65.900002	-1.881272E-7
65.904999	-3.699679E-7
65.915001	-8.242205E-8
65.919998	-2.176967E-7
65.930000	-2.726447E-7
65.934998	-2.346933E-7
65.945000	-1.034932E-7
65.949997	-2.769521E-7
65.959999	-3.023306E-7
65.964996	-3.277091E-7
65.974998	-2.853340E-7
65.980003	-3.107125E-7
65.989998	-2.896413E-7
65.995003	-2.050074E-7
66.004997	-3.699679E-7
66.010002	-3.530877E-7
66.019997	-4.165340E-7
66.025002	-2.346933E-7
66.035004	-2.473826E-7
66.040001	-2.853340E-7
66.050003	-2.220040E-7
66.055000	-4.165340E-7
66.065002	-2.008164E-7
66.070000	-3.319001E-7
66.080002	-2.557645E-7
66.084999	-3.741588E-7
66.095001	-2.515735E-7
66.099998	-3.699679E-7
66.110001	-2.684537E-7
66.114998	-4.546018E-7
66.125000	-2.220040E-7
66.129997	-1.034932E-7
66.139999	-3.150199E-7
66.144997	-3.360910E-7
66.154999	-1.839362E-7
66.160004	-8.242205E-8
66.169998	-3.445894E-7
66.175003	-2.726447E-7
66.184998	-2.093147E-7
66.190002	-3.699679E-7
66.199997	-4.461035E-7
66.205002	-2.473826E-7
66.214996	-2.980232E-7
66.220001	-2.430752E-7
66.230003	-2.135057E-7
66.235001	-2.303859E-7
66.245003	-2.473826E-7
66.250000	-2.093147E-7
66.260002	-1.669396E-7
66.264999	-2.346933E-7
66.275002	-1.966255E-7
66.279999	-2.008164E-7
66.290001	-3.530877E-7
66.294998	-4.546018E-7
66.305000	-3.319001E-7
66.309998	-3.234018E-7
66.320000	-2.811430E-7
66.324997	-2.811430E-7
66.334999	-4.165340E-7
66.339996	-9.080395E-8
66.349998	-2.853340E-7
66.355003	-1.966255E-7
66.364998	-2.008164E-7
66.370003	-1.839362E-7
66.379997	-2.303859E-7
66.385002	-3.023306E-7
66.394997	-8.661300E-8
66.400002	-2.515735E-7
66.410004	-2.557645E-7
66.415001	-2.684537E-7
66.425003	-1.161825E-7
66.430000	-3.995374E-7
66.440002	-3.023306E-7
66.445000	-3.572786E-7
66.455002	-2.980232E-7
66.459999	-2.599554E-7
66.470001	-2.093147E-7
66.474998	-3.657769E-7
66.485001	-2.388842E-7
66.489998	-3.699679E-7
66.500000	-6.542541E-8
66.504997	-1.754379E-7
66.514999	-1.881272E-7
66.519997	-3.572786E-7
66.529999	-1.458684E-7
66.535004	-3.826572E-7
66.544998	-3.319001E-7
66.550003	-3.065215E-7
66.559998	-3.150199E-7
66.565002	-6.973278E-8
66.574997	-2.938323E-7
66.580002	-3.614696E-7
66.589996	-2.093147E-7
66.595001	-2.176967E-7
66.605003	-2.726447E-7
66.610001	-2.220040E-7
66.620003	-4.854519E-8
66.625000	-4.926696E-7
66.635002	-3.107125E-7
66.639999	-9.511132E-8
66.650002	-9.080395E-8
66.654999	-2.557645E-7
66.665001	-2.008164E-7
66.669998	-3.657769E-7
66.680000	-1.034932E-7
66.684998	-3.530877E-7
66.695000	-2.135057E-7
66.699997	-1.796288E-7
66.709999	-1.331791E-7
66.714996	-2.008164E-7
66.724998	-1.754379E-7
66.730003	-1.331791E-7
66.739998	-2.515735E-7
66.745003	-2.261950E-7
66.754997	-2.557645E-7
66.760002	-3.107125E-7
66.769997	-2.135057E-7
66.775002	-2.388842E-7
66.785004	-8.661300E-8
66.790001	-1.923181E-7
66.800003	-2.557645E-7
66.805000	-2.093147E-7
66.815002	-3.319001E-7
66.820000	-1.373701E-7
66.830002	-9.930227E-8
66.834999	-1.796288E-7
66.845001	-2.853340E-7
66.849998	-1.839362E-7
66.860001	-2.388842E-7
66.864998	-3.614696E-7
66.875000	-2.430752E-7
66.879997	-2.008164E-7
66.889999	-1.712469E-7
66.894997	-2.980232E-7
66.904999	-3.065215E-7
66.910004	-3.911555E-7
66.919998	-2.316665E-8
66.925003	-1.839362E-7
66.934998	-1.712469E-7
66.940002	-1.839362E-7
66.949997	-1.796288E-7
66.955002	-1.373701E-7
66.964996	-1.246808E-7
66.970001	-2.430752E-7
66.980003	-3.166497E-8
66.985001	-2.093147E-7
66.995003	-2.473826E-7
67.000000	-2.261950E-7
67.010002	-1.754379E-7
67.014999	-1.078006E-7
67.025002	-1.712469E-7
67.029999	-7.392373E-8
67.040001	-1.161825E-7
67.044998	-1.754379E-7
67.055000	-3.023306E-7
67.059998	7.834751E-8
67.070000	-2.515735E-7
67.074997	-1.585577E-7
67.084999	-8.661300E-8
67.089996	-1.881272E-7
67.099998	-1.881272E-7
67.105003	-7.811468E-8
67.114998	-1.204899E-7
67.120003	-1.839362E-7
67.129997	-1.246808E-7
67.135002	-3.192108E-7
67.144997	-2.430752E-7
67.150002	-1.373701E-7
67.160004	-7.811468E-8
67.165001	7.834751E-8
67.175003	-2.135057E-7
67.180000	-1.881272E-7
67.190002	-9.930227E-8
67.195000	-1.542503E-7
67.205002	-2.726447E-7
67.214996	-2.811430E-7
67.220001	-2.008164E-7
67.230003	4.027970E-8
67.235001	-1.923181E-7
67.245003	-9.511132E-8
67.250000	-2.176967E-7
67.260002	-4.854519E-8
67.264999	-1.796288E-7
67.275002	-6.123446E-8
67.279999	-3.585592E-8
67.290001	-1.542503E-7
67.294998	-2.050074E-7
67.305000	-4.004687E-8
67.309998	-1.923181E-7
67.320000	-2.938323E-7
67.324997	-1.047738E-8
67.334999	-5.704351E-8
67.339996	-7.392373E-8
67.349998	-3.166497E-8
67.355003	-9.930227E-8
67.364998	1.502922E-7
67.370003	-9.930227E-8
67.379997	2.339948E-8
67.385002	-8.661300E-8
67.394997	-1.034932E-7
67.400002	-1.979060E-9
67.410004	3.608875E-8
67.415001	9.103678E-8
67.425003	-1.979060E-9
67.430000	1.909211E-8
67.440002	5.715992E-8
67.445000	1.671724E-7
67.455002	4.027970E-8
67.459999	-2.896413E-7
67.470001	-2.316665E-8
67.474998	9.103678E-8
67.485001	5.715992E-8
67.489998	6.402843E-9
67.500000	1.071021E-8
67.504997	1.587905E-7
67.514999	9.103678E-8
67.519997	1.544831E-7
67.529999	1.502922E-7
67.535004	-4.004687E-8
67.544998	1.909211E-8
67.550003	1.587905E-7
67.559998	1.629815E-7
67.565002	5.715992E-8
67.574997	1.417939E-7
67.580002	1.544831E-7
67.589996	2.052402E-7
67.595001	1.164153E-7
67.605003	2.137385E-7
67.610001	7.834751E-8
67.620003	4.209578E-7
67.625000	2.264278E-7
67.635002	1.376029E-7
67.639999	1.841690E-7
67.650002	1.291046E-7
67.654999	2.010493E-7
67.665001	1.122244E-7
67.669998	2.729939E-7
67.680000	4.505273E-7
67.684998	2.391171E-7
67.695000	3.025634E-7
67.699997	3.660098E-7
67.709999	2.729939E-7
67.714996	2.813758E-7
67.724998	2.813758E-7
67.730003	5.097827E-7
67.739998	3.194436E-7
67.745003	4.124595E-7
67.754997	5.054753E-7
67.760002	4.378380E-7
67.769997	3.660098E-7
67.775002	5.097827E-7
67.785004	4.421454E-7
67.790001	6.789342E-7
67.800003	5.224720E-7
67.805000	3.067544E-7
67.815002	4.378380E-7
67.820000	4.294561E-7
67.830002	6.112969E-7
67.834999	4.970934E-7
67.845001	7.043127E-7
67.849998	5.647307E-7
67.860001	6.281771E-7
67.864998	6.747432E-7
67.875000	7.338822E-7
67.879997	7.592607E-7
67.889999	8.142088E-7
67.894997	7.423805E-7
67.904999	7.507624E-7
67.910004	7.719500E-7
67.919998	8.776551E-7
67.925003	1.004548E-6
67.934998	8.776551E-7
67.940002	9.284122E-7
67.949997	9.369105E-7
67.955002	8.058269E-7
67.964996	8.607749E-7
67.970001	1.013046E-6
67.980003	1.118751E-6
67.985001	1.135631E-6
67.995003	9.833602E-7
68.000000	1.063803E-6
68.010002	1.097564E-6
68.014999	1.194887E-6
68.025002	1.156819E-6
68.029999	1.334352E-6
68.040001	1.414795E-6
68.044998	1.224456E-6
68.055000	1.275213E-6
68.059998	1.368229E-6
68.070000	1.372420E-6
68.074997	1.452863E-6
68.084999	1.402106E-6
68.089996	1.469743E-6
68.099998	1.596636E-6
68.105003	1.588138E-6
68.114998	1.457054E-6
68.120003	1.634704E-6
68.129997	1.867302E-6
68.135002	1.710723E-6
68.144997	1.820736E-6
68.150002	1.765788E-6
68.160004	1.829234E-6
68.165001	1.702341E-6
68.175003	1.837616E-6
68.180000	1.989887E-6
68.190002	2.273242E-6
68.195000	2.129469E-6
68.205002	2.159039E-6
68.209999	2.171728E-6
68.220001	2.120971E-6
68.224998	2.264744E-6
68.235001	2.260553E-6
68.239998	2.332381E-6
68.250000	2.404326E-6
68.254997	2.450892E-6
68.264999	2.425513E-6
68.269997	2.573477E-6
68.279999	2.873712E-6
68.285004	2.784887E-6
68.294998	3.000605E-6
68.300003	2.890592E-6
68.309998	2.971035E-6
68.315002	3.064051E-6
68.324997	3.178255E-6
68.330002	3.241701E-6
68.339996	3.292342E-6
68.345001	3.123190E-6
68.355003	3.326219E-6
68.360001	3.296649E-6
68.370003	3.381167E-6
68.375000	3.524940E-6
68.385002	3.808294E-6
68.389999	3.732159E-6
68.400002	3.766036E-6
68.404999	3.871741E-6
68.415001	4.024012E-6
68.419998	4.184665E-6
68.430000	4.227040E-6
68.434998	4.311558E-6
68.445000	4.446949E-6
68.449997	4.468020E-6
68.459999	4.637172E-6
68.464996	4.696427E-6
68.474998	4.836009E-6
68.480003	4.873960E-6
68.489998	4.819012E-6
68.495003	5.022041E-6
68.504997	5.072798E-6
68.510002	5.267328E-6
68.519997	5.444977E-6
68.525002	5.229260E-6
68.535004	5.664770E-6
68.540001	5.639507E-6
68.550003	6.113085E-6
68.555000	5.990500E-6
68.565002	6.091897E-6
68.570000	6.129965E-6
68.580002	6.383751E-6
68.584999	6.489456E-6
68.595001	6.675487E-6
68.599998	6.688177E-6
68.610001	6.903894E-6
68.614998	7.009599E-6
68.625000	7.284456E-6
68.629997	7.280265E-6
68.639999	7.474795E-6
68.644997	7.648254E-6
68.654999	7.732771E-6
68.660004	8.159899E-6
68.669998	7.990748E-6
68.675003	8.383999E-6
68.684998	8.472824E-6
68.690002	8.599716E-6
68.699997	8.887262E-6
68.705002	8.899951E-6
68.714996	9.145238E-6
68.720001	9.580865E-6
68.730003	9.534298E-6
68.735001	9.716139E-6
68.745003	9.940239E-6
68.750000	1.015177E-5
68.760002	1.035468E-5
68.764999	1.051964E-5
68.775002	1.049845E-5
68.779999	1.120474E-5
68.790001	1.120474E-5
68.794998	1.116667E-5
68.805000	1.163606E-5
68.809998	1.169101E-5
68.820000	1.207169E-5
68.824997	1.220696E-5
68.834999	1.243537E-5
68.839996	1.270173E-5
68.849998	1.291744E-5
68.855003	1.314585E-5
68.864998	1.362374E-5
68.870003	1.369556E-5
68.879997	1.407613E-5
68.885002	1.422002E-5
68.894997	1.454132E-5
68.900002	1.485425E-5
68.910004	1.497276E-5
68.915001	1.533644E-5
68.925003	1.581432E-5
68.930000	1.586927E-5
68.940002	1.647393E-5
68.945000	1.625833E-5
68.955002	1.681235E-5
68.959999	1.705333E-5
68.970001	1.752272E-5
68.974998	1.731981E-5
68.985001	1.820782E-5
68.989998	1.836009E-5
69.000000	1.870689E-5
69.004997	1.897325E-5
69.014999	1.951458E-5
69.019997	1.961191E-5
69.029999	2.019119E-5
69.035004	2.047454E-5
69.044998	2.098200E-5
69.050003	2.102857E-5
69.059998	2.144719E-5
69.065002	2.184475E-5
69.074997	2.228457E-5
69.080002	2.253824E-5
69.089996	2.299505E-5
69.095001	2.351939E-5
69.105003	2.425525E-5
69.110001	2.403953E-5
69.120003	2.485572E-5
69.125000	2.509251E-5
69.135002	2.559996E-5
69.139999	2.598483E-5
69.150002	2.654735E-5
69.154999	2.676295E-5
69.165001	2.749881E-5
69.169998	2.783292E-5
69.180000	2.827274E-5
69.184998	2.870825E-5
69.195000	2.954144E-5
69.199997	2.974016E-5
69.209999	3.028149E-5
69.214996	3.072969E-5
69.224998	3.128371E-5
69.230003	3.161782E-5
69.239998	3.233668E-5
69.245003	3.269198E-5
69.254997	3.346161E-5
69.260002	3.369420E-5
69.269997	3.488257E-5
69.275002	3.488676E-5
69.285004	3.563100E-5
69.290001	3.617234E-5
69.300003	3.689551E-5
69.305000	3.729726E-5
69.315002	3.789354E-5
69.320000	3.858702E-5
69.330002	3.943709E-5
69.334999	4.002487E-5
69.345001	4.052394E-5
69.349998	4.110753E-5
69.360001	4.180532E-5
69.364998	4.226621E-5
69.375000	4.338264E-5
69.379997	4.388590E-5
69.389999	4.491361E-5
69.394997	4.496425E-5
69.404999	4.589465E-5
69.410004	4.646135E-5
69.419998	4.753133E-5
69.425003	4.783156E-5
69.434998	4.868151E-5
69.440002	4.951889E-5
69.449997	5.042390E-5
69.455002	5.112588E-5
69.464996	5.205197E-5
69.470001	5.265255E-5
69.480003	5.354057E-5
69.485001	5.424256E-5
69.495003	5.523220E-5
69.500000	5.604408E-5
69.510002	5.694490E-5
69.514999	5.745236E-5
69.525002	5.852652E-5
69.529999	5.918194E-5
69.540001	6.056065E-5
69.544998	6.086507E-5
69.555000	6.239593E-5
69.559998	6.302190E-5
69.570000	6.415101E-5
69.574997	6.475567E-5
69.584999	6.622740E-5
69.589996	6.700971E-5
69.599998	6.807968E-5
69.605003	6.882392E-5
69.614998	6.999541E-5
69.620003	7.052394E-5
69.629997	7.221138E-5
69.635002	7.290067E-5
69.644997	7.426238E-5
69.650002	7.460918E-5
69.660004	7.586088E-5
69.665001	7.715076E-5
69.675003	7.834332E-5
69.680000	7.926940E-5
69.690002	8.028431E-5
69.695000	8.180260E-5
69.705002	8.255104E-5
69.709999	8.386630E-5
69.720001	8.516456E-5
69.724998	8.626410E-5
69.735001	8.787110E-5
69.739998	8.848845E-5
69.750000	8.982059E-5
69.754997	9.116123E-5
69.764999	9.289500E-5
69.775002	9.475579E-5
69.779999	9.523367E-5
69.790001	9.639654E-5
69.794998	9.763148E-5
69.805000	0.000100
69.809998	0.000101
69.820000	0.000102
69.824997	0.000104
69.834999	0.000105
69.839996	0.000106
69.849998	0.000109
69.855003	0.000110
69.864998	0.000111
69.870003	0.000113
69.879997	0.000114
69.885002	0.000116
69.894997	0.000117
69.900002	0.000118
69.910004	0.000120
69.915001	0.000121
69.925003	0.000123
69.930000	0.000125
69.940002	0.000127
69.945000	0.000128
69.955002	0.000130
69.959999	0.000132
69.970001	0.000134
69.974998	0.000135
69.985001	0.000137
69.989998	0.000139
70.000000	0.000140
70.004997	0.000141
70.014999	0.000144
70.019997	0.000145
70.029999	0.000147
70.035004	0.000149
70.044998	0.000151
70.050003	0.000153
70.059998	0.000155
70.065002	0.000157
70.074997	0.000159
70.080002	0.000161
70.089996	0.000163
70.095001	0.000164
70.105003	0.000166
70.110001	0.000167
70.120003	0.000169
70.125000	0.000170
70.135002	0.000174
70.139999	0.000175
70.150002	0.000177
70.154999	0.000180
70.165001	0.000182
70.169998	0.000183
70.180000	0.000186
70.184998	0.000188
70.195000	0.000190
70.199997	0.000191
70.209999	0.000194
70.214996	0.000195
70.224998	0.000198
70.230003	0.000199
70.239998	0.000201
70.245003	0.000203
70.254997	0.000206
70.260002	0.000206
70.269997	0.000209
70.275002	0.000210
70.285004	0.000213
70.290001	0.000214
70.300003	0.000216
70.305000	0.000217
70.315002	0.000220
70.320000	0.000221
70.330002	0.000223
70.334999	0.000225
70.345001	0.000227
70.349998	0.000227
70.360001	0.000229
70.364998	0.000231
70.375000	0.000233
70.379997	0.000233
70.389999	0.000236
70.394997	0.000237
70.404999	0.000239
70.410004	0.000240
70.419998	0.000241
70.425003	0.000242
70.434998	0.000243
70.440002	0.000245
70.449997	0.000246
70.455002	0.000247
70.464996	0.000248
70.470001	0.000249
70.480003	0.000250
70.485001	0.000250
70.495003	0.000252
70.500000	0.000253
70.510002	0.000254
70.514999	0.000254
70.525002	0.000255
70.529999	0.000256
70.540001	0.000257
70.544998	0.000257
70.555000	0.000258
70.559998	0.000259
70.570000	0.000260
70.574997	0.000260
70.584999	0.000261
70.589996	0.000262
70.599998	0.000263
70.605003	0.000263
70.614998	0.000264
70.620003	0.000264
70.629997	0.000265
70.635002	0.000266
70.644997	0.000266
70.650002	0.000267
70.660004	0.000268
70.665001	0.000268
70.675003	0.000269
70.680000	0.000269
70.690002	0.000270
70.695000	0.000270
70.705002	0.000271
70.709999	0.000271
70.720001	0.000272
70.724998	0.000273
70.735001	0.000273
70.739998	0.000274
70.750000	0.000274
70.754997	0.000275
70.764999	0.000276
70.769997	0.000276
70.779999	0.000277
70.785004	0.000277
70.794998	0.000278
70.800003	0.000278
70.809998	0.000278
70.815002	0.000279
70.824997	0.000280
70.830002	0.000280
70.839996	0.000280
70.845001	0.000281
70.855003	0.000281
70.860001	0.000282
70.870003	0.000282
70.875000	0.000283
70.885002	0.000283
70.889999	0.000284
70.900002	0.000284
70.904999	0.000285
70.915001	0.000285
70.919998	0.000285
70.930000	0.000286
70.934998	0.000286
70.945000	0.000287
70.949997	0.000287
70.959999	0.000288
70.964996	0.000288
70.974998	0.000289
70.980003	0.000289
70.989998	0.000290
70.995003	0.000290
71.004997	0.000291
71.010002	0.000291
71.019997	0.000291
71.025002	0.000292
71.035004	0.000292
71.040001	0.000292
71.050003	0.000293
71.055000	0.000293
71.065002	0.000294
71.070000	0.000294
71.080002	0.000295
71.084999	0.000295
71.095001	0.000295
71.099998	0.000296
71.110001	0.000296
71.114998	0.000296
71.125000	0.000297
71.129997	0.000297
71.139999	0.000298
71.144997	0.000298
71.154999	0.000298
71.160004	0.000299
71.169998	0.000299
71.175003	0.000299
71.184998	0.000300
71.190002	0.000300
71.199997	0.000301
71.205002	0.000301
71.214996	0.000301
71.220001	0.000302
71.230003	0.000302
71.235001	0.000302
71.245003	0.000303
71.250000	0.000303
71.260002	0.000303
71.264999	0.000304
71.275002	0.000304
71.279999	0.000304
71.290001	0.000305
71.294998	0.000305
71.305000	0.000306
71.309998	0.000306
71.320000	0.000306
71.324997	0.000306
71.334999	0.000307
71.339996	0.000307
71.349998	0.000307
71.355003	0.000308
71.364998	0.000308
71.370003	0.000308
71.379997	0.000309
71.385002	0.000309
71.394997	0.000309
71.400002	0.000309
71.410004	0.000310
71.415001	0.000310
71.425003	0.000311
71.430000	0.000311
71.440002	0.000311
71.445000	0.000311
71.455002	0.000312
71.459999	0.000312
71.470001	0.000312
71.474998	0.000312
71.485001	0.000313
71.489998	0.000313
71.500000	0.000313
71.504997	0.000314
71.514999	0.000314
71.519997	0.000314
71.529999	0.000314
71.535004	0.000315
71.544998	0.000315
71.550003	0.000315
71.559998	0.000316
71.565002	0.000316
71.574997	0.000316
71.580002	0.000316
71.589996	0.000317
71.595001	0.000317
71.605003	0.000317
71.610001	0.000317
71.620003	0.000318
71.625000	0.000318
71.635002	0.000318
71.639999	0.000318
71.650002	0.000319
71.654999	0.000319
71.665001	0.000319
71.669998	0.000320
71.680000	0.000320
71.684998	0.000320
71.695000	0.000320
71.699997	0.000321
71.709999	0.000321
71.714996	0.000321
71.724998	0.000321
71.730003	0.000321
71.739998	0.000322
71.745003	0.000322
71.754997	0.000322
71.760002	0.000322
71.769997	0.000323
71.775002	0.000323
71.785004	0.000323
71.790001	0.000323
71.800003	0.000324
71.805000	0.000324
71.815002	0.000324
71.820000	0.000324
71.830002	0.000325
71.834999	0.000325
71.845001	0.000325
71.849998	0.000325
71.860001	0.000325
71.864998	0.000326
71.875000	0.000326
71.879997	0.000326
71.889999	0.000326
71.894997	0.000327
71.904999	0.000327
71.910004	0.000327
71.919998	0.000327
71.925003	0.000327
71.934998	0.000328
71.940002	0.000328
71.949997	0.000328
71.955002	0.000328
71.964996	0.000329
71.970001	0.000329
71.980003	0.000329
71.985001	0.000329
71.995003	0.000329
72.000000	0.000329
72.010002	0.000330
72.014999	0.000330
72.025002	0.000330
72.029999	0.000330
72.040001	0.000331
72.044998	0.000331
72.055000	0.000331
72.059998	0.000331
72.070000	0.000331
72.074997	0.000331
72.084999	0.000332
72.089996	0.000332
72.099998	0.000332
72.105003	0.000332
72.114998	0.000332
72.120003	0.000333
72.129997	0.000333
72.135002	0.000333
72.144997	0.000333
72.150002	0.000333
72.160004	0.000334
72.165001	0.000334
72.175003	0.000334
72.180000	0.000334
72.190002	0.000334
72.195000	0.000334
72.205002	0.000335
72.209999	0.000335
72.220001	0.000335
72.224998	0.000335
72.235001	0.000335
72.239998	0.000336
72.250000	0.000336
72.254997	0.000336
72.264999	0.000336
72.269997	0.000336
72.279999	0.000336
72.285004	0.000337
72.294998	0.000337
72.300003	0.000337
72.309998	0.000337
72.315002	0.000337
72.324997	0.000337
72.334999	0.000338
72.339996	0.000338
72.349998	0.000338
72.355003	0.000338
72.364998	0.000338
72.370003	0.000339
72.379997	0.000339
72.385002	0.000339
72.394997	0.000339
72.400002	0.000339
72.410004	0.000339
72.415001	0.000339
72.425003	0.000340
72.430000	0.000340
72.440002	0.000340
72.445000	0.000340
72.455002	0.000340
72.459999	0.000340
72.470001	0.000341
72.474998	0.000341
72.485001	0.000341
72.489998	0.000341
72.500000	0.000341
72.504997	0.000341
72.514999	0.000342
72.519997	0.000342
72.529999	0.000342
72.535004	0.000342
72.544998	0.000342
72.550003	0.000342
72.559998	0.000342
72.565002	0.000343
72.574997	0.000343
72.580002	0.000343
72.589996	0.000343
72.595001	0.000343
72.605003	0.000343
72.610001	0.000343
72.620003	0.000344
72.625000	0.000344
72.635002	0.000344
72.639999	0.000344
72.650002	0.000344
72.654999	0.000344
72.665001	0.000345
72.669998	0.000345
72.680000	0.000345
72.684998	0.000345
72.695000	0.000345
72.699997	0.000345
72.709999	0.000346
72.714996	0.000346
72.724998	0.000346
72.730003	0.000346
72.739998	0.000346
72.745003	0.000346
72.754997	0.000346
72.760002	0.000346
72.769997	0.000346
72.775002	0.000347
72.785004	0.000347
72.790001	0.000347
72.800003	0.000347
72.805000	0.000347
72.815002	0.000347
72.820000	0.000347
72.830002	0.000348
72.834999	0.000348
72.845001	0.000348
72.849998	0.000348
72.860001	0.000348
72.864998	0.000348
72.875000	0.000348
72.879997	0.000349
72.889999	0.000349
72.894997	0.000349
72.904999	0.000349
72.910004	0.000349
72.919998	0.000349
72.925003	0.000349
72.934998	0.000349
72.940002	0.000350
72.949997	0.000350
72.955002	0.000350
72.964996	0.000350
72.970001	0.000350
72.980003	0.000350
72.985001	0.000350
72.995003	0.000350
73.000000	0.000350
73.010002	0.000351
73.014999	0.000351
73.025002	0.000351
73.029999	0.000351
73.040001	0.000351
73.044998	0.000351
73.055000	0.000352
73.059998	0.000351
73.070000	0.000352
73.074997	0.000352
73.084999	0.000352
73.089996	0.000352
73.099998	0.000352
73.105003	0.000352
73.114998	0.000352
73.120003	0.000352
73.129997	0.000352
73.135002	0.000353
73.144997	0.000353
73.150002	0.000353
73.160004	0.000353
73.165001	0.000353
73.175003	0.000353
73.180000	0.000353
73.190002	0.000353
73.195000	0.000353
73.205002	0.000354
73.209999	0.000354
73.220001	0.000354
73.224998	0.000354
73.235001	0.000354
73.239998	0.000354
73.250000	0.000354
73.254997	0.000354
73.264999	0.000354
73.269997	0.000355
73.279999	0.000355
73.285004	0.000355
73.294998	0.000355
73.300003	0.000355
73.309998	0.000355
73.315002	0.000355
73.324997	0.000355
73.330002	0.000355
73.339996	0.000356
73.345001	0.000356
73.355003	0.000356
73.360001	0.000356
73.370003	0.000356
73.375000	0.000356
73.385002	0.000356
73.389999	0.000356
73.400002	0.000356
73.404999	0.000356
73.415001	0.000357
73.419998	0.000357
73.430000	0.000357
73.434998	0.000357
73.445000	0.000357
73.449997	0.000357
73.459999	0.000357
73.464996	0.000357
73.474998	0.000357
73.480003	0.000357
73.489998	0.000358
73.495003	0.000358
73.504997	0.000358
73.510002	0.000358
73.519997	0.000358
73.525002	0.000358
73.535004	0.000358
73.540001	0.000358
73.550003	0.000358
73.555000	0.000358
73.565002	0.000359
73.570000	0.000359
73.580002	0.000359
73.584999	0.000359
73.595001	0.000359
73.599998	0.000359
73.610001	0.000359
73.614998	0.000359
73.625000	0.000359
73.629997	0.000359
73.639999	0.000359
73.644997	0.000360
73.654999	0.000360
73.660004	0.000360
73.669998	0.000360
73.675003	0.000360
73.684998	0.000360
73.690002	0.000360
73.699997	0.000360
73.705002	0.000360
73.714996	0.000360
73.720001	0.000360
73.730003	0.000360
73.735001	0.000361
73.745003	0.000361
73.750000	0.000361
73.760002	0.000361
73.764999	0.000361
73.775002	0.000361
73.779999	0.000361
73.790001	0.000361
73.794998	0.000361
73.805000	0.000361
73.809998	0.000361
73.820000	0.000361
73.824997	0.000361
73.834999	0.000362
73.839996	0.000362
73.849998	0.000362
73.855003	0.000362
73.864998	0.000362
73.870003	0.000362
73.879997	0.000362
73.885002	0.000362
73.894997	0.000362
73.900002	0.000362
73.910004	0.000362
73.915001	0.000362
73.925003	0.000363
73.930000	0.000363
73.940002	0.000363
73.945000	0.000363
73.955002	0.000363
73.959999	0.000363
73.970001	0.000363
73.974998	0.000363
73.985001	0.000363
73.989998	0.000363
74.000000	0.000363
74.004997	0.000363
74.014999	0.000363
74.019997	0.000363
74.029999	0.000364
74.035004	0.000364
74.044998	0.000364
74.050003	0.000364
74.059998	0.000364
74.065002	0.000364
74.074997	0.000364
74.080002	0.000364
74.089996	0.000364
74.095001	0.000364
74.105003	0.000364
74.110001	0.000364
74.120003	0.000364
74.125000	0.000365
74.135002	0.000365
74.139999	0.000365
74.150002	0.000365
74.154999	0.000365
74.165001	0.000365
74.169998	0.000365
74.180000	0.000365
74.184998	0.000365
74.195000	0.000365
74.199997	0.000365
74.209999	0.000365
74.214996	0.000365
74.224998	0.000366
74.230003	0.000366
74.239998	0.000366
74.245003	0.000366
74.254997	0.000366
74.260002	0.000366
74.269997	0.000366
74.275002	0.000366
74.285004	0.000366
74.290001	0.000366
74.300003	0.000366
74.305000	0.000366
74.315002	0.000366
74.320000	0.000366
74.330002	0.000366
74.334999	0.000366
74.345001	0.000367
74.349998	0.000367
74.360001	0.000367
74.364998	0.000367
74.375000	0.000367
74.379997	0.000367
74.389999	0.000367
74.394997	0.000367
74.404999	0.000367
74.410004	0.000367
74.419998	0.000367
74.425003	0.000367
74.434998	0.000367
74.440002	0.000367
74.449997	0.000367
74.455002	0.000367
74.464996	0.000368
74.470001	0.000368
74.480003	0.000368
74.485001	0.000368
74.495003	0.000368
74.500000	0.000368
74.510002	0.000368
74.514999	0.000368
74.525002	0.000368
74.529999	0.000368
74.540001	0.000368
74.544998	0.000368
74.555000	0.000368
74.559998	0.000368
74.570000	0.000368
74.574997	0.000368
74.584999	0.000368
74.589996	0.000369
74.599998	0.000369
74.605003	0.000369
74.614998	0.000369
74.620003	0.000369
74.629997	0.000369
74.635002	0.000369
74.644997	0.000369
74.650002	0.000369
74.660004	0.000369
74.665001	0.000369
74.675003	0.000369
74.680000	0.000369
74.690002	0.000369
74.695000	0.000369
74.705002	0.000369
74.709999	0.000369
74.720001	0.000369
74.724998	0.000370
74.735001	0.000370
74.739998	0.000370
74.750000	0.000370
74.754997	0.000370
74.764999	0.000370
74.769997	0.000370
74.779999	0.000370
74.785004	0.000370
74.794998	0.000370
74.800003	0.000370
74.809998	0.000370
74.815002	0.000370
74.824997	0.000370
74.830002	0.000370
74.839996	0.000370
74.845001	0.000370
74.855003	0.000371
74.860001	0.000370
74.870003	0.000371
74.875000	0.000371
74.885002	0.000371
74.889999	0.000371
74.900002	0.000371
74.910004	0.000371
74.915001	0.000371
74.925003	0.000371
74.930000	0.000371
74.940002	0.000371
74.945000	0.000371
74.955002	0.000371
74.959999	0.000371
74.970001	0.000371
74.974998	0.000371
74.985001	0.000371
74.989998	0.000371
75.000000	0.000371
75.004997	0.000371
