% Langmuir characteristic curve

% U (Volt)	I (A)
60.000000	-3.275927E-7
60.009998	-1.922017E-7
60.014999	-3.190944E-7
60.025002	-4.501780E-7
60.029999	-4.079193E-7
60.040001	-3.571622E-7
60.044998	-3.783498E-7
60.055000	-5.475013E-7
60.060001	-5.348120E-7
60.070000	-4.247995E-7
60.075001	-3.910391E-7
60.084999	-3.740424E-7
60.090000	-3.656605E-7
60.099998	-3.402820E-7
60.105000	-3.825407E-7
60.115002	-4.840549E-7
60.119999	-3.444729E-7
60.130001	-3.105961E-7
60.134998	-2.387678E-7
60.145000	-4.459871E-7
60.150002	-4.206086E-7
60.160000	-5.306210E-7
60.165001	-4.079193E-7
60.174999	-3.402820E-7
60.180000	-3.486639E-7
60.189999	-3.317837E-7
60.195000	-1.499429E-7
60.205002	-3.402820E-7
60.209999	-3.529713E-7
60.220001	-5.643815E-7
60.224998	-3.613532E-7
60.235001	-6.532064E-7
60.240002	-3.444729E-7
60.250000	-4.586764E-7
60.255001	-3.571622E-7
60.264999	-5.052425E-7
60.270000	-4.755566E-7
60.279999	-2.514571E-7
60.285000	-3.656605E-7
60.294998	-3.656605E-7
60.299999	-3.783498E-7
60.310001	-3.105961E-7
60.314999	-3.402820E-7
60.325001	-2.979068E-7
60.330002	-4.291069E-7
60.340000	-4.586764E-7
60.345001	-3.190944E-7
60.355000	-5.136244E-7
60.360001	-5.263137E-7
60.369999	-2.472661E-7
60.375000	-4.417961E-7
60.384998	-3.994210E-7
60.389999	-4.206086E-7
60.400002	-3.656605E-7
60.404999	-4.459871E-7
60.415001	-4.925532E-7
60.419998	-3.867317E-7
60.430000	-3.190944E-7
60.435001	-3.740424E-7
60.445000	-5.094334E-7
60.450001	-5.306210E-7
60.459999	-3.783498E-7
60.465000	-5.263137E-7
60.474998	-3.825407E-7
60.480000	-2.472661E-7
60.490002	-3.740424E-7
60.494999	-3.317837E-7
60.505001	-3.613532E-7
60.509998	-4.417961E-7
60.520000	-4.164176E-7
60.525002	-3.952300E-7
60.535000	-3.529713E-7
60.540001	-4.247995E-7
60.549999	-2.853340E-7
60.555000	-3.105961E-7
60.564999	-3.910391E-7
60.570000	-4.501780E-7
60.580002	-2.091983E-7
60.584999	-3.613532E-7
60.595001	-4.374888E-7
60.599998	-4.459871E-7
60.610001	-3.486639E-7
60.615002	-4.291069E-7
60.625000	-3.698515E-7
60.630001	-5.263137E-7
60.639999	-5.770708E-7
60.645000	-3.825407E-7
60.654999	-4.544854E-7
60.660000	-4.459871E-7
60.669998	-3.486639E-7
60.674999	-2.853340E-7
60.685001	-3.867317E-7
60.689999	-3.825407E-7
60.700001	-2.175802E-7
60.705002	-5.643815E-7
60.715000	-5.559996E-7
60.720001	-3.656605E-7
60.730000	-3.444729E-7
60.735001	-4.459871E-7
60.744999	-3.910391E-7
60.750000	-4.037283E-7
60.759998	-3.317837E-7
60.764999	-3.359746E-7
60.775002	-2.895249E-7
60.779999	-1.795124E-7
60.790001	-2.979068E-7
60.794998	-3.275927E-7
60.805000	-4.121102E-7
60.810001	-4.459871E-7
60.820000	-3.275927E-7
60.825001	-4.079193E-7
60.834999	-5.348120E-7
60.840000	-4.374888E-7
60.849998	-4.417961E-7
60.855000	-4.755566E-7
60.865002	-3.317837E-7
60.869999	-5.009351E-7
60.880001	-3.444729E-7
60.884998	-3.149034E-7
60.895000	-5.009351E-7
60.900002	-2.810266E-7
60.910000	-3.910391E-7
60.915001	-3.994210E-7
60.924999	-5.433103E-7
60.930000	-3.952300E-7
60.939999	-3.994210E-7
60.945000	-5.643815E-7
60.955002	-3.867317E-7
60.959999	-2.302695E-7
60.970001	-4.882459E-7
60.974998	-4.882459E-7
60.985001	-3.022142E-7
60.990002	-3.910391E-7
61.000000	-3.825407E-7
61.005001	-3.867317E-7
61.014999	-2.979068E-7
61.020000	-5.559996E-7
61.029999	-3.656605E-7
61.035000	-4.037283E-7
61.044998	-3.783498E-7
61.049999	-5.433103E-7
61.060001	-4.291069E-7
61.064999	-4.291069E-7
61.075001	-3.402820E-7
61.080002	-6.743940E-7
61.090000	-5.263137E-7
61.095001	-5.390029E-7
61.105000	-1.838198E-7
61.110001	-2.345769E-7
61.119999	-3.444729E-7
61.125000	-3.656605E-7
61.134998	-2.768356E-7
61.139999	-4.544854E-7
61.150002	-3.571622E-7
61.154999	-4.374888E-7
61.165001	-4.417961E-7
61.169998	-4.586764E-7
61.180000	-3.783498E-7
61.185001	-2.429588E-7
61.195000	-3.867317E-7
61.200001	-3.825407E-7
61.209999	-3.740424E-7
61.215000	-5.559996E-7
61.224998	-3.529713E-7
61.230000	-2.895249E-7
61.240002	-3.444729E-7
61.244999	-3.825407E-7
61.255001	-4.164176E-7
61.259998	-3.275927E-7
61.270000	-3.952300E-7
61.275002	-4.417961E-7
61.285000	-4.332978E-7
61.290001	-3.698515E-7
61.299999	-5.390029E-7
61.305000	-5.559996E-7
61.314999	-3.994210E-7
61.320000	-4.079193E-7
61.330002	-4.164176E-7
61.334999	-4.798640E-7
61.345001	-4.967442E-7
61.349998	-5.390029E-7
61.360001	-3.783498E-7
61.365002	-3.444729E-7
61.375000	-3.952300E-7
61.380001	-3.698515E-7
61.389999	-4.037283E-7
61.395000	-2.683373E-7
61.404999	-3.994210E-7
61.410000	-2.218876E-7
61.419998	-3.064051E-7
61.424999	-4.332978E-7
61.435001	-1.965091E-7
61.439999	-3.105961E-7
61.450001	-2.979068E-7
61.455002	-2.895249E-7
61.465000	-3.022142E-7
61.470001	-3.952300E-7
61.480000	-3.359746E-7
61.485001	-5.221227E-7
61.494999	-2.218876E-7
61.500000	-4.840549E-7
61.509998	-5.601905E-7
61.514999	-3.698515E-7
61.525002	-4.544854E-7
61.529999	-2.260786E-7
61.540001	-3.317837E-7
61.544998	-3.486639E-7
61.555000	-3.486639E-7
61.560001	-3.994210E-7
61.570000	-3.740424E-7
61.575001	-3.867317E-7
61.584999	-2.979068E-7
61.590000	-3.613532E-7
61.599998	-3.825407E-7
61.605000	-3.952300E-7
61.615002	-3.910391E-7
61.619999	-5.516922E-7
61.630001	-3.952300E-7
61.634998	-2.768356E-7
61.645000	-3.275927E-7
61.650002	-4.291069E-7
61.660000	-3.783498E-7
61.665001	-4.459871E-7
61.674999	-1.753215E-7
61.680000	-3.740424E-7
61.689999	-4.374888E-7
61.695000	-3.910391E-7
61.705002	-2.853340E-7
61.709999	-3.740424E-7
61.720001	-3.994210E-7
61.724998	-5.559996E-7
61.735001	-3.317837E-7
61.740002	-4.586764E-7
61.750000	-5.813781E-7
61.755001	-3.952300E-7
61.764999	-3.275927E-7
61.770000	-5.306210E-7
61.779999	-4.332978E-7
61.785000	-3.656605E-7
61.794998	-3.867317E-7
61.799999	-2.937159E-7
61.810001	-3.529713E-7
61.814999	-3.232853E-7
61.825001	-4.037283E-7
61.830002	-5.601905E-7
61.840000	-3.486639E-7
61.845001	-5.221227E-7
61.855000	-3.825407E-7
61.860001	-4.206086E-7
61.869999	-5.263137E-7
61.875000	-3.867317E-7
61.884998	-4.247995E-7
61.889999	-4.079193E-7
61.900002	-3.656605E-7
61.904999	-3.698515E-7
61.915001	-3.275927E-7
61.919998	-3.529713E-7
61.930000	-2.895249E-7
61.935001	-4.164176E-7
61.945000	-4.164176E-7
61.950001	-4.501780E-7
61.959999	-5.813781E-7
61.965000	-4.291069E-7
61.974998	-4.291069E-7
61.980000	-5.559996E-7
61.990002	-5.136244E-7
61.994999	-3.275927E-7
62.005001	-4.798640E-7
62.009998	-3.359746E-7
62.020000	-5.263137E-7
62.025002	-4.037283E-7
62.035000	-2.683373E-7
62.040001	-3.022142E-7
62.049999	-3.867317E-7
62.055000	-5.136244E-7
62.064999	-4.332978E-7
62.070000	-4.332978E-7
62.080002	-3.783498E-7
62.084999	-4.037283E-7
62.095001	-4.501780E-7
62.099998	-3.486639E-7
62.110001	-4.671747E-7
62.115002	-2.853340E-7
62.125000	-3.359746E-7
62.130001	-3.022142E-7
62.139999	-2.810266E-7
62.145000	-2.895249E-7
62.154999	-1.668232E-7
62.160000	-2.260786E-7
62.169998	-5.390029E-7
62.174999	-4.121102E-7
62.185001	-4.079193E-7
62.189999	-4.332978E-7
62.200001	-6.997725E-7
62.205002	-4.586764E-7
62.215000	-2.514571E-7
62.220001	-3.783498E-7
62.230000	-3.952300E-7
62.235001	-3.656605E-7
62.244999	-3.529713E-7
62.250000	-3.359746E-7
62.259998	-3.359746E-7
62.264999	-3.740424E-7
62.275002	-4.798640E-7
62.279999	-4.206086E-7
62.290001	-2.133893E-7
62.294998	-4.079193E-7
62.305000	-3.867317E-7
62.310001	-4.164176E-7
62.320000	-4.544854E-7
62.325001	-5.263137E-7
62.334999	-3.022142E-7
62.340000	-3.613532E-7
62.349998	-2.895249E-7
62.355000	-3.275927E-7
62.365002	-3.275927E-7
62.369999	-1.584413E-7
62.380001	-3.571622E-7
62.384998	-3.317837E-7
62.395000	-3.064051E-7
62.400002	-4.882459E-7
62.410000	-4.247995E-7
62.415001	-4.501780E-7
62.424999	-3.740424E-7
62.430000	-3.613532E-7
62.439999	-3.910391E-7
62.445000	-3.486639E-7
62.455002	-1.880107E-7
62.459999	-3.105961E-7
62.470001	-4.037283E-7
62.474998	-3.022142E-7
62.485001	-3.656605E-7
62.490002	-3.571622E-7
62.500000	-3.444729E-7
62.505001	-6.151386E-7
62.514999	-2.133893E-7
62.520000	-5.940674E-7
62.529999	-3.910391E-7
62.535000	-5.940674E-7
62.544998	-4.164176E-7
62.549999	-4.332978E-7
62.560001	-3.783498E-7
62.564999	-3.232853E-7
62.575001	-3.698515E-7
62.580002	-4.798640E-7
62.590000	-2.768356E-7
62.595001	-3.613532E-7
62.605000	-2.895249E-7
62.610001	-3.698515E-7
62.619999	-3.952300E-7
62.625000	-4.291069E-7
62.634998	-4.291069E-7
62.639999	-4.501780E-7
62.650002	-4.417961E-7
62.654999	-5.643815E-7
62.665001	-4.037283E-7
62.669998	-5.813781E-7
62.680000	-3.994210E-7
62.685001	-1.880107E-7
62.695000	-3.232853E-7
62.700001	-3.232853E-7
62.709999	-4.544854E-7
62.715000	-2.514571E-7
62.724998	-3.486639E-7
62.730000	-4.925532E-7
62.740002	-2.683373E-7
62.744999	-3.444729E-7
62.755001	-2.302695E-7
62.759998	-4.247995E-7
62.770000	-3.402820E-7
62.775002	-5.263137E-7
62.785000	-3.910391E-7
62.790001	-3.740424E-7
62.799999	-3.486639E-7
62.805000	-5.179318E-7
62.814999	-2.810266E-7
62.820000	-4.840549E-7
62.830002	-3.486639E-7
62.834999	-3.275927E-7
62.845001	-3.022142E-7
62.849998	-4.079193E-7
62.860001	-3.698515E-7
62.865002	-3.613532E-7
62.875000	-4.713656E-7
62.880001	-4.798640E-7
62.889999	-2.599554E-7
62.895000	-2.979068E-7
62.904999	-3.022142E-7
62.910000	-3.317837E-7
62.919998	-2.895249E-7
62.924999	-4.079193E-7
62.935001	-3.613532E-7
62.939999	-4.755566E-7
62.950001	-2.726447E-7
62.955002	-3.149034E-7
62.965000	-4.121102E-7
62.970001	-4.206086E-7
62.980000	-4.164176E-7
62.985001	-3.698515E-7
62.994999	-3.613532E-7
63.000000	-3.740424E-7
63.009998	-3.698515E-7
63.014999	-3.275927E-7
63.025002	-4.079193E-7
63.029999	-2.429588E-7
63.040001	-6.320188E-7
63.044998	-2.853340E-7
63.055000	-2.853340E-7
63.060001	-5.009351E-7
63.070000	-3.740424E-7
63.075001	-1.965091E-7
63.084999	-4.925532E-7
63.090000	-4.332978E-7
63.099998	-4.586764E-7
63.105000	-5.263137E-7
63.115002	-4.586764E-7
63.119999	-3.952300E-7
63.130001	-6.109476E-7
63.134998	-4.037283E-7
63.145000	-1.541339E-7
63.150002	-4.206086E-7
63.160000	-1.457520E-7
63.165001	-3.317837E-7
63.174999	-3.867317E-7
63.180000	-3.613532E-7
63.189999	-3.232853E-7
63.195000	-4.459871E-7
63.205002	-3.825407E-7
63.209999	-3.402820E-7
63.220001	-2.175802E-7
63.224998	-4.417961E-7
63.235001	-5.559996E-7
63.240002	-3.867317E-7
63.250000	-3.444729E-7
63.255001	-3.105961E-7
63.264999	-2.853340E-7
63.270000	-3.444729E-7
63.279999	-4.206086E-7
63.285000	-2.768356E-7
63.294998	-3.359746E-7
63.299999	-3.994210E-7
63.310001	-4.121102E-7
63.314999	-3.402820E-7
63.325001	-3.359746E-7
63.330002	-3.867317E-7
63.340000	-4.291069E-7
63.345001	-3.910391E-7
63.355000	-3.022142E-7
63.360001	-3.529713E-7
63.369999	-5.728798E-7
63.375000	-1.372537E-7
63.384998	-4.206086E-7
63.389999	-3.529713E-7
63.400002	-2.895249E-7
63.404999	-3.149034E-7
63.415001	-4.037283E-7
63.419998	-3.529713E-7
63.430000	-3.022142E-7
63.435001	-4.164176E-7
63.445000	-4.037283E-7
63.450001	-3.317837E-7
63.459999	-4.121102E-7
63.465000	-4.291069E-7
63.474998	-3.698515E-7
63.480000	-2.853340E-7
63.490002	-2.937159E-7
63.494999	-2.556480E-7
63.505001	-3.022142E-7
63.509998	-2.853340E-7
63.520000	-2.768356E-7
63.525002	-3.232853E-7
63.535000	-3.444729E-7
63.540001	-5.052425E-7
63.549999	-4.037283E-7
63.555000	-4.798640E-7
63.564999	-3.149034E-7
63.570000	-5.094334E-7
63.580002	-3.571622E-7
63.584999	-4.882459E-7
63.595001	-3.698515E-7
63.599998	-3.994210E-7
63.610001	-4.840549E-7
63.615002	-3.444729E-7
63.625000	-3.149034E-7
63.630001	-4.332978E-7
63.639999	-3.994210E-7
63.645000	-3.064051E-7
63.654999	-1.838198E-7
63.660000	-4.037283E-7
63.669998	-3.656605E-7
63.674999	-5.179318E-7
63.685001	-3.867317E-7
63.689999	-3.783498E-7
63.700001	-3.529713E-7
63.705002	-3.444729E-7
63.715000	-1.668232E-7
63.720001	-2.853340E-7
63.730000	-2.514571E-7
63.735001	-2.641464E-7
63.744999	-4.586764E-7
63.750000	-4.840549E-7
63.759998	-2.514571E-7
63.764999	-2.979068E-7
63.775002	-3.910391E-7
63.779999	-4.417961E-7
63.790001	-3.656605E-7
63.794998	-2.048910E-7
63.805000	-3.359746E-7
63.810001	-2.133893E-7
63.820000	-3.529713E-7
63.825001	-3.105961E-7
63.834999	-3.064051E-7
63.840000	-3.064051E-7
63.849998	-3.064051E-7
63.855000	-3.022142E-7
63.865002	-3.994210E-7
63.869999	-3.275927E-7
63.880001	-3.571622E-7
63.884998	-3.105961E-7
63.895000	-3.613532E-7
63.900002	-3.867317E-7
63.910000	-5.136244E-7
63.915001	-3.190944E-7
63.924999	-4.079193E-7
63.930000	-5.052425E-7
63.939999	-2.810266E-7
63.945000	-2.556480E-7
63.955002	-1.372537E-7
63.959999	-2.599554E-7
63.970001	-2.429588E-7
63.974998	-4.291069E-7
63.985001	-4.417961E-7
63.990002	-4.037283E-7
64.000000	-4.755566E-7
64.004997	-3.149034E-7
64.014999	-4.164176E-7
64.019997	-5.770708E-7
64.029999	-4.417961E-7
64.035004	-3.444729E-7
64.044998	-3.994210E-7
64.050003	-3.359746E-7
64.059998	-3.275927E-7
64.065002	-3.783498E-7
64.074997	-4.459871E-7
64.080002	-4.586764E-7
64.089996	-3.571622E-7
64.095001	-1.584413E-7
64.105003	-4.247995E-7
64.110001	-3.740424E-7
64.120003	-3.275927E-7
64.125000	-4.840549E-7
64.135002	-3.486639E-7
64.139999	-4.882459E-7
64.150002	-3.444729E-7
64.154999	-4.332978E-7
64.165001	-4.628673E-7
64.169998	-4.247995E-7
64.180000	-1.330627E-7
64.184998	-2.472661E-7
64.195000	-2.472661E-7
64.199997	-4.628673E-7
64.209999	-2.007000E-7
64.214996	-3.783498E-7
64.224998	-3.022142E-7
64.230003	-3.105961E-7
64.239998	-4.291069E-7
64.245003	-3.867317E-7
64.254997	-3.064051E-7
64.260002	-3.529713E-7
64.269997	-3.402820E-7
64.275002	-3.402820E-7
64.285004	-2.556480E-7
64.290001	-2.810266E-7
64.300003	-4.332978E-7
64.305000	-4.417961E-7
64.315002	-3.740424E-7
64.320000	-2.810266E-7
64.330002	-3.994210E-7
64.334999	-5.433103E-7
64.345001	-3.105961E-7
64.349998	-3.825407E-7
64.360001	-3.783498E-7
64.364998	-3.656605E-7
64.375000	-4.037283E-7
64.379997	-4.798640E-7
64.389999	-3.952300E-7
64.394997	-3.740424E-7
64.404999	-4.247995E-7
64.410004	-3.571622E-7
64.419998	-3.825407E-7
64.425003	-3.022142E-7
64.434998	-2.768356E-7
64.440002	-3.952300E-7
64.449997	-3.064051E-7
64.455002	-1.711305E-7
64.464996	-3.105961E-7
64.470001	-4.586764E-7
64.480003	-1.880107E-7
64.485001	-3.910391E-7
64.495003	-2.599554E-7
64.500000	-3.402820E-7
64.510002	-3.149034E-7
64.514999	-3.740424E-7
64.525002	-4.374888E-7
64.529999	-3.486639E-7
64.540001	-3.232853E-7
64.544998	-3.444729E-7
64.555000	-3.022142E-7
64.559998	-2.979068E-7
64.570000	-3.571622E-7
64.574997	-3.613532E-7
64.584999	-4.967442E-7
64.589996	-3.105961E-7
64.599998	-3.064051E-7
64.605003	-2.853340E-7
64.614998	-4.037283E-7
64.620003	-3.571622E-7
64.629997	-2.514571E-7
64.635002	-1.033768E-7
64.644997	-2.472661E-7
64.650002	-1.668232E-7
64.660004	-1.711305E-7
64.669998	-4.544854E-7
64.675003	-3.740424E-7
64.684998	-2.768356E-7
64.690002	-3.275927E-7
64.699997	-3.952300E-7
64.705002	-4.121102E-7
64.714996	-4.079193E-7
64.720001	-1.668232E-7
64.730003	-4.755566E-7
64.735001	-2.683373E-7
64.745003	-2.218876E-7
64.750000	-2.979068E-7
64.760002	-3.022142E-7
64.764999	-3.529713E-7
64.775002	-4.628673E-7
64.779999	-3.064051E-7
64.790001	-3.444729E-7
64.794998	-3.656605E-7
64.805000	-1.753215E-7
64.809998	-3.105961E-7
64.820000	-2.895249E-7
64.824997	-3.740424E-7
64.834999	-2.599554E-7
64.839996	-3.910391E-7
64.849998	-3.064051E-7
64.855003	-2.726447E-7
64.864998	-1.076842E-7
64.870003	-2.683373E-7
64.879997	-1.160661E-7
64.885002	-4.037283E-7
64.894997	-2.979068E-7
64.900002	-3.571622E-7
64.910004	-3.825407E-7
64.915001	-3.444729E-7
64.925003	-2.937159E-7
64.930000	-4.079193E-7
64.940002	-3.656605E-7
64.945000	-1.499429E-7
64.955002	-3.105961E-7
64.959999	-1.457520E-7
64.970001	-3.275927E-7
64.974998	-4.291069E-7
64.985001	-3.064051E-7
64.989998	-3.317837E-7
65.000000	-1.499429E-7
65.004997	-2.641464E-7
65.014999	-4.079193E-7
65.019997	-3.656605E-7
65.029999	-4.628673E-7
65.035004	-3.232853E-7
65.044998	-2.937159E-7
65.050003	-3.698515E-7
65.059998	-3.656605E-7
65.065002	-3.359746E-7
65.074997	-2.937159E-7
65.080002	-2.726447E-7
65.089996	-3.317837E-7
65.095001	-4.291069E-7
65.105003	-1.330627E-7
65.110001	-3.232853E-7
65.120003	-3.402820E-7
65.125000	-1.753215E-7
65.135002	-2.133893E-7
65.139999	-3.486639E-7
65.150002	-4.079193E-7
65.154999	-5.009351E-7
65.165001	-3.149034E-7
65.169998	-3.529713E-7
65.180000	-3.317837E-7
65.184998	-3.149034E-7
65.195000	-2.387678E-7
65.199997	-2.895249E-7
65.209999	-2.302695E-7
65.214996	-4.206086E-7
65.224998	-3.149034E-7
65.230003	-2.768356E-7
65.239998	-3.022142E-7
65.245003	-1.626322E-7
65.254997	-2.895249E-7
65.260002	-3.825407E-7
65.269997	-2.937159E-7
65.275002	-3.698515E-7
65.285004	-3.275927E-7
65.290001	-2.683373E-7
65.300003	-2.429588E-7
65.305000	-2.514571E-7
65.315002	-4.164176E-7
65.320000	-2.302695E-7
65.330002	-4.291069E-7
65.334999	-2.048910E-7
65.345001	-3.571622E-7
65.349998	-2.556480E-7
65.360001	-2.895249E-7
65.364998	-3.402820E-7
65.375000	-3.402820E-7
65.379997	-3.190944E-7
65.389999	-3.275927E-7
65.394997	-2.641464E-7
65.404999	-2.853340E-7
65.410004	-2.853340E-7
65.419998	-2.895249E-7
65.425003	-3.444729E-7
65.434998	-2.514571E-7
65.440002	-4.079193E-7
65.449997	-2.895249E-7
65.455002	-4.459871E-7
65.464996	-3.232853E-7
65.470001	-2.895249E-7
65.480003	-3.317837E-7
65.485001	-3.529713E-7
65.495003	-3.064051E-7
65.500000	-2.895249E-7
65.510002	-3.402820E-7
65.514999	-3.529713E-7
65.525002	-2.641464E-7
65.529999	-2.260786E-7
65.540001	-3.529713E-7
65.544998	-2.260786E-7
65.555000	-2.641464E-7
65.559998	-3.232853E-7
65.570000	-3.317837E-7
65.574997	-1.626322E-7
65.584999	-3.190944E-7
65.589996	-3.994210E-7
65.599998	-4.247995E-7
65.605003	-1.541339E-7
65.614998	-3.698515E-7
65.620003	-3.486639E-7
65.629997	-1.626322E-7
65.635002	-5.433103E-7
65.644997	-3.232853E-7
65.650002	-4.544854E-7
65.660004	-2.641464E-7
65.665001	-2.048910E-7
65.675003	-2.641464E-7
65.680000	-3.867317E-7
65.690002	-2.429588E-7
65.695000	-4.544854E-7
65.705002	-3.105961E-7
65.709999	-3.825407E-7
65.720001	-4.671747E-7
65.724998	-1.499429E-7
65.735001	-3.613532E-7
65.739998	-4.586764E-7
65.750000	-3.740424E-7
65.754997	-2.429588E-7
65.764999	-2.726447E-7
65.769997	-3.064051E-7
65.779999	-3.317837E-7
65.785004	-2.556480E-7
65.794998	-3.317837E-7
65.800003	-3.486639E-7
65.809998	-1.414446E-7
65.815002	-3.064051E-7
65.824997	-3.105961E-7
65.830002	-3.022142E-7
65.839996	-2.260786E-7
65.845001	-2.683373E-7
65.855003	-3.064051E-7
65.860001	-2.387678E-7
65.870003	-3.444729E-7
65.875000	-2.472661E-7
65.885002	-3.190944E-7
65.889999	-2.133893E-7
65.900002	-2.979068E-7
65.904999	-3.190944E-7
65.915001	-2.895249E-7
65.919998	-2.895249E-7
65.930000	-2.599554E-7
65.934998	-3.275927E-7
65.945000	-3.486639E-7
65.949997	-5.179318E-7
65.959999	-1.668232E-7
65.964996	-3.867317E-7
65.974998	-1.287553E-7
65.980003	-4.713656E-7
65.989998	-3.952300E-7
65.995003	-3.022142E-7
66.004997	-1.965091E-7
66.010002	-2.810266E-7
66.019997	-2.853340E-7
66.025002	-3.149034E-7
66.035004	-1.287553E-7
66.040001	-3.444729E-7
66.050003	-3.571622E-7
66.055000	-3.952300E-7
66.065002	-4.586764E-7
66.070000	-3.022142E-7
66.080002	-3.275927E-7
66.084999	-2.133893E-7
66.095001	-3.232853E-7
66.099998	-3.190944E-7
66.110001	-3.105961E-7
66.114998	-8.649658E-8
66.125000	-3.022142E-7
66.129997	-2.387678E-7
66.139999	-3.317837E-7
66.144997	-2.472661E-7
66.154999	-1.414446E-7
66.160004	-2.810266E-7
66.169998	-2.556480E-7
66.175003	-3.190944E-7
66.184998	-2.683373E-7
66.190002	-3.105961E-7
66.199997	-4.332978E-7
66.205002	-5.263137E-7
66.214996	-2.387678E-7
66.220001	-2.387678E-7
66.230003	-2.726447E-7
66.235001	-1.203734E-7
66.245003	-4.164176E-7
66.250000	-5.179318E-7
66.260002	-4.247995E-7
66.264999	-2.048910E-7
66.275002	-2.853340E-7
66.279999	-3.571622E-7
66.290001	-3.190944E-7
66.294998	-1.287553E-7
66.305000	-2.683373E-7
66.309998	-3.359746E-7
66.320000	-3.359746E-7
66.324997	-3.825407E-7
66.334999	-6.961636E-8
66.339996	-2.768356E-7
66.349998	-3.105961E-7
66.355003	-3.486639E-7
66.364998	-3.190944E-7
66.370003	-2.683373E-7
66.379997	-2.726447E-7
66.385002	-2.895249E-7
66.394997	-3.190944E-7
66.400002	-2.429588E-7
66.410004	-2.895249E-7
66.415001	-1.499429E-7
66.425003	-2.768356E-7
66.430000	-3.105961E-7
66.440002	-9.068754E-8
66.445000	-1.626322E-7
66.455002	-2.175802E-7
66.459999	-2.472661E-7
66.470001	-3.486639E-7
66.474998	-2.810266E-7
66.485001	-2.895249E-7
66.489998	-2.302695E-7
66.500000	-1.330627E-7
66.504997	-3.444729E-7
66.514999	-2.683373E-7
66.519997	-3.022142E-7
66.529999	-3.359746E-7
66.535004	-4.121102E-7
66.544998	-3.022142E-7
66.550003	-3.022142E-7
66.559998	-7.799827E-8
66.565002	-2.133893E-7
66.574997	-2.218876E-7
66.580002	-3.105961E-7
66.589996	-4.586764E-7
66.595001	-3.275927E-7
66.605003	-8.649658E-8
66.610001	-2.726447E-7
66.620003	-3.571622E-7
66.625000	-3.317837E-7
66.635002	-4.332978E-7
66.639999	-2.514571E-7
66.650002	-2.726447E-7
66.654999	-3.444729E-7
66.665001	-2.726447E-7
66.669998	-3.952300E-7
66.680000	-2.556480E-7
66.684998	-8.649658E-8
66.695000	-1.965091E-7
66.699997	-2.768356E-7
66.709999	-3.444729E-7
66.714996	-2.726447E-7
66.724998	-4.079193E-7
66.730003	-3.994210E-7
66.739998	-2.302695E-7
66.745003	-2.345769E-7
66.754997	-3.402820E-7
66.760002	-9.499490E-8
66.769997	-2.218876E-7
66.775002	-2.768356E-7
66.785004	-1.922017E-7
66.790001	-1.541339E-7
66.800003	-7.380731E-8
66.805000	-2.726447E-7
66.815002	-1.880107E-7
66.820000	-2.429588E-7
66.830002	-2.768356E-7
66.834999	-2.429588E-7
66.845001	-3.022142E-7
66.849998	-5.433103E-7
66.860001	-3.952300E-7
66.864998	-4.291069E-7
66.875000	-3.867317E-7
66.879997	-2.472661E-7
66.889999	-4.164176E-7
66.894997	-3.359746E-7
66.904999	-2.683373E-7
66.910004	-2.048910E-7
66.919998	-3.571622E-7
66.925003	-2.641464E-7
66.934998	-3.022142E-7
66.940002	-3.190944E-7
66.949997	-3.232853E-7
66.955002	-4.206086E-7
66.964996	-2.599554E-7
66.970001	-2.641464E-7
66.980003	-2.556480E-7
66.985001	-4.037283E-7
66.995003	-2.556480E-7
67.000000	-2.599554E-7
67.010002	-1.965091E-7
67.014999	-2.472661E-7
67.025002	-2.472661E-7
67.029999	-2.007000E-7
67.040001	-3.740424E-7
67.044998	-1.965091E-7
67.055000	-3.613532E-7
67.059998	-2.641464E-7
67.070000	-2.683373E-7
67.074997	-2.514571E-7
67.084999	-3.064051E-7
67.089996	-3.529713E-7
67.099998	-2.895249E-7
67.105003	-1.965091E-7
67.114998	-4.501780E-7
67.120003	-3.613532E-7
67.129997	-2.472661E-7
67.135002	-1.668232E-7
67.144997	-9.918585E-8
67.150002	-1.626322E-7
67.160004	-2.514571E-7
67.165001	-2.091983E-7
67.175003	-3.149034E-7
67.180000	-3.402820E-7
67.190002	-5.136244E-7
67.195000	-2.768356E-7
67.205002	-8.649658E-8
67.214996	-2.091983E-7
67.220001	-2.429588E-7
67.230003	-1.965091E-7
67.235001	-2.895249E-7
67.245003	-1.414446E-7
67.250000	-2.345769E-7
67.260002	-1.118751E-7
67.264999	-2.853340E-7
67.275002	-4.882459E-7
67.279999	-2.937159E-7
67.290001	-7.799827E-8
67.294998	-3.190944E-7
67.305000	-2.810266E-7
67.309998	-1.287553E-7
67.320000	-2.937159E-7
67.324997	-7.799827E-8
67.334999	-2.345769E-7
67.339996	-2.937159E-7
67.349998	-1.965091E-7
67.355003	-1.330627E-7
67.364998	-1.668232E-7
67.370003	-3.740424E-7
67.379997	-2.260786E-7
67.385002	-3.359746E-7
67.394997	-2.048910E-7
67.400002	-2.387678E-7
67.410004	-3.105961E-7
67.415001	-2.937159E-7
67.425003	-2.302695E-7
67.430000	-2.979068E-7
67.440002	-1.245644E-7
67.445000	-2.133893E-7
67.455002	-3.486639E-7
67.459999	-3.275927E-7
67.470001	-1.885928E-8
67.474998	-2.556480E-7
67.485001	-1.036096E-8
67.489998	-1.838198E-7
67.500000	-1.795124E-7
67.504997	-2.599554E-7
67.514999	-2.599554E-7
67.519997	-2.302695E-7
67.529999	-2.091983E-7
67.535004	-2.387678E-7
67.544998	-3.232853E-7
67.550003	-2.133893E-7
67.559998	-2.514571E-7
67.565002	-3.444729E-7
67.574997	-2.133893E-7
67.580002	-2.514571E-7
67.589996	-1.414446E-7
67.595001	6.519258E-9
67.605003	-1.330627E-7
67.610001	-1.584413E-7
67.620003	-1.287553E-7
67.625000	-3.317837E-7
67.635002	-3.190944E-7
67.639999	-3.783498E-7
67.650002	-1.838198E-7
67.654999	-3.656605E-7
67.665001	-2.175802E-7
67.669998	-3.613532E-7
67.680000	-1.885928E-8
67.684998	-1.795124E-7
67.695000	-1.668232E-7
67.699997	-2.937159E-7
67.709999	-1.668232E-7
67.714996	-2.302695E-7
67.724998	-1.414446E-7
67.730003	-1.711305E-7
67.739998	-3.444729E-7
67.745003	-2.979068E-7
67.754997	-2.683373E-7
67.760002	-2.724119E-8
67.769997	-1.668232E-7
67.775002	-2.599554E-7
67.785004	-1.753215E-7
67.790001	-1.499429E-7
67.800003	-3.105961E-7
67.805000	-1.541339E-7
67.815002	-2.726447E-7
67.820000	-1.330627E-7
67.830002	-7.799827E-8
67.834999	-3.232853E-7
67.845001	3.608875E-8
67.849998	-8.230563E-8
67.860001	-1.753215E-7
67.864998	-2.260786E-7
67.875000	-1.668232E-7
67.879997	-2.175802E-7
67.889999	-1.795124E-7
67.894997	-1.711305E-7
67.904999	-2.768356E-7
67.910004	-1.203734E-7
67.919998	-6.111804E-8
67.925003	-5.261973E-8
67.934998	-1.414446E-7
67.940002	-1.160661E-7
67.949997	-1.033768E-7
67.955002	8.265488E-8
67.964996	-1.203734E-7
67.970001	-2.641464E-7
67.980003	-6.961636E-8
67.985001	-2.260786E-7
67.995003	-1.541339E-7
68.000000	-2.683373E-7
68.010002	-4.842877E-8
68.014999	-9.499490E-8
68.025002	1.920853E-8
68.029999	4.458707E-8
68.040001	-2.091983E-7
68.044998	-4.842877E-8
68.055000	-5.692709E-8
68.059998	-4.842877E-8
68.070000	2.770685E-8
68.074997	-5.692709E-8
68.084999	9.534415E-8
68.089996	1.122244E-7
68.099998	-2.724119E-8
68.105003	-1.862645E-9
68.114998	-3.573950E-8
68.120003	-1.711305E-7
68.129997	-1.711305E-7
68.135002	-6.961636E-8
68.144997	-1.499429E-7
68.150002	-1.862645E-9
68.160004	2.328306E-9
68.165001	-1.455192E-8
68.175003	7.415656E-8
68.180000	7.415656E-8
68.190002	8.684583E-8
68.195000	2.010493E-7
68.205002	-1.499429E-7
68.209999	1.501758E-8
68.220001	6.146729E-8
68.224998	5.727634E-8
68.235001	-7.799827E-8
68.239998	-1.036096E-8
68.250000	3.608875E-8
68.254997	2.559973E-7
68.264999	-4.423782E-8
68.269997	8.684583E-8
68.279999	7.846393E-8
68.285004	1.926674E-7
68.294998	-1.499429E-7
68.300003	-1.036096E-8
68.309998	9.534415E-8
68.315002	5.727634E-8
68.324997	1.122244E-7
68.330002	1.292210E-7
68.339996	3.364403E-7
68.345001	1.587905E-7
68.355003	1.545995E-7
68.360001	2.306188E-7
68.370003	4.039612E-8
68.375000	2.391171E-7
68.385002	1.249136E-7
68.389999	2.940651E-7
68.400002	2.856832E-7
68.404999	2.940651E-7
68.415001	1.883600E-7
68.419998	4.463363E-7
68.430000	2.729939E-7
68.434998	1.334120E-7
68.445000	1.080334E-7
68.449997	2.603047E-7
68.459999	2.686866E-7
68.464996	3.279420E-7
68.474998	3.152527E-7
68.480003	2.559973E-7
68.489998	3.871974E-7
68.495003	3.152527E-7
68.504997	4.548347E-7
68.510002	3.618188E-7
68.519997	5.266629E-7
68.525002	3.406312E-7
68.535004	3.364403E-7
68.540001	3.321329E-7
68.550003	4.040776E-7
68.555000	2.686866E-7
68.565002	5.647307E-7
68.570000	5.901093E-7
68.580002	5.647307E-7
68.584999	5.774200E-7
68.595001	5.901093E-7
68.599998	6.704358E-7
68.610001	6.916234E-7
68.614998	6.874325E-7
68.625000	5.859183E-7
68.629997	7.043127E-7
68.639999	7.296912E-7
68.644997	7.170020E-7
68.654999	7.508788E-7
68.660004	7.761410E-7
68.669998	8.395873E-7
68.675003	6.789342E-7
68.684998	8.776551E-7
68.690002	8.395873E-7
68.699997	8.776551E-7
68.705002	1.000357E-6
68.714996	1.156819E-6
68.720001	9.664800E-7
68.730003	7.973285E-7
68.735001	1.017237E-6
68.745003	1.199078E-6
68.750000	1.076492E-6
68.760002	1.215958E-6
68.764999	1.207576E-6
68.775002	1.228647E-6
68.779999	1.241337E-6
68.790001	1.232955E-6
68.794998	1.444365E-6
68.805000	1.275213E-6
68.809998	1.368229E-6
68.820000	1.148321E-6
68.824997	1.376728E-6
68.834999	1.524691E-6
68.839996	1.537381E-6
68.849998	1.630397E-6
68.855003	1.774170E-6
68.864998	1.634704E-6
68.870003	1.643086E-6
68.879997	1.731911E-6
68.885002	1.740409E-6
68.894997	1.630397E-6
68.900002	1.850305E-6
68.910004	1.778477E-6
68.915001	1.884182E-6
68.925003	1.989887E-6
68.930000	1.964509E-6
68.940002	2.243556E-6
68.945000	2.256245E-6
68.955002	2.184417E-6
68.959999	2.226676E-6
68.970001	2.298621E-6
68.974998	2.522720E-6
68.985001	2.446584E-6
68.989998	2.446584E-6
69.000000	2.488843E-6
69.004997	2.539600E-6
69.014999	2.624234E-6
69.019997	2.560788E-6
69.029999	2.725748E-6
69.035004	2.590357E-6
69.044998	2.877903E-6
69.050003	3.042864E-6
69.059998	2.962537E-6
69.065002	2.966728E-6
69.074997	3.157067E-6
69.080002	3.114808E-6
69.089996	3.144378E-6
69.095001	3.186637E-6
69.105003	3.415043E-6
69.110001	3.651832E-6
69.120003	3.592577E-6
69.125000	3.689900E-6
69.135002	3.575697E-6
69.139999	3.778725E-6
69.150002	3.766036E-6
69.154999	3.918190E-6
69.165001	4.125410E-6
69.169998	4.193163E-6
69.180000	3.947876E-6
69.184998	4.408765E-6
69.195000	4.468020E-6
69.199997	4.544156E-6
69.209999	4.848582E-6
69.214996	4.717498E-6
69.224998	4.734378E-6
69.230003	4.941598E-6
69.239998	5.055801E-6
69.245003	5.076989E-6
69.254997	5.144626E-6
69.260002	5.364534E-6
69.269997	5.478621E-6
69.275002	5.575945E-6
69.285004	5.711219E-6
69.290001	5.939626E-6
69.300003	6.049522E-6
69.305000	6.036833E-6
69.315002	6.239861E-6
69.320000	6.337184E-6
69.330002	6.552786E-6
69.334999	6.650109E-6
69.345001	6.789574E-6
69.349998	7.022172E-6
69.360001	7.144874E-6
69.364998	7.259077E-6
69.375000	7.347786E-6
69.379997	7.398543E-6
69.389999	7.669209E-6
69.394997	7.834169E-6
69.404999	7.732655E-6
69.410004	8.202041E-6
69.419998	8.443138E-6
69.425003	8.405070E-6
69.434998	8.705305E-6
69.440002	9.064795E-6
69.449997	9.098556E-6
69.455002	9.216950E-6
69.464996	9.335345E-6
69.470001	9.597628E-6
69.480003	9.783660E-6
69.485001	9.897863E-6
69.495003	1.009239E-5
69.500000	1.054059E-5
69.510002	1.042220E-5
69.514999	1.055747E-5
69.525002	1.086202E-5
69.529999	1.106493E-5
69.540001	1.159788E-5
69.544998	1.157669E-5
69.555000	1.181348E-5
69.559998	1.209683E-5
69.570000	1.227867E-5
69.574997	1.268880E-5
69.584999	1.293409E-5
69.589996	1.297647E-5
69.599998	1.334015E-5
69.605003	1.357275E-5
69.614998	1.377147E-5
69.620003	1.405901E-5
69.629997	1.442269E-5
69.635002	1.469336E-5
69.644997	1.482025E-5
69.650002	1.538685E-5
69.660004	1.549686E-5
69.665001	1.562363E-5
69.675003	1.613959E-5
69.680000	1.618615E-5
69.690002	1.659209E-5
69.695000	1.695578E-5
69.705002	1.735752E-5
69.709999	1.758162E-5
69.720001	1.789455E-5
69.724998	1.848664E-5
69.735001	1.874880E-5
69.739998	1.875299E-5
69.750000	1.912937E-5
69.754997	1.966651E-5
69.764999	1.994555E-5
69.775002	2.050376E-5
69.779999	2.064335E-5
69.790001	2.119725E-5
69.794998	2.148061E-5
69.805000	2.203044E-5
69.809998	2.234755E-5
69.820000	2.278737E-5
69.824997	2.301147E-5
69.834999	2.377690E-5
69.839996	2.394186E-5
69.849998	2.442813E-5
69.855003	2.482568E-5
69.864998	2.529926E-5
69.870003	2.586597E-5
69.879997	2.636923E-5
69.885002	2.666516E-5
69.894997	2.715574E-5
69.900002	2.769276E-5
69.910004	2.834830E-5
69.915001	2.860196E-5
69.925003	2.907985E-5
69.930000	2.968882E-5
69.940002	3.027660E-5
69.945000	3.055576E-5
69.955002	3.108010E-5
69.959999	3.154529E-5
69.970001	3.231491E-5
69.974998	3.273785E-5
69.985001	3.335951E-5
69.989998	3.400224E-5
70.000000	3.475498E-5
70.004997	3.466196E-5
70.014999	3.549922E-5
70.019997	3.609550E-5
70.029999	3.689050E-5
70.035004	3.745302E-5
70.044998	3.806618E-5
70.050003	3.871741E-5
70.059998	3.958435E-5
70.065002	3.973232E-5
70.074997	4.070497E-5
70.080002	4.121242E-5
70.089996	4.234153E-5
70.095001	4.251918E-5
70.105003	4.321267E-5
70.110001	4.374550E-5
70.120003	4.468858E-5
70.125000	4.514109E-5
70.135002	4.602491E-5
70.139999	4.669721E-5
70.150002	4.788139E-5
70.154999	4.894275E-5
70.165001	4.945451E-5
70.169998	5.027058E-5
70.180000	5.106570E-5
70.184998	5.168736E-5
70.195000	5.264720E-5
70.199997	5.299400E-5
70.209999	5.409773E-5
70.214996	5.464745E-5
70.224998	5.588657E-5
70.230003	5.640241E-5
70.239998	5.733280E-5
70.245003	5.831814E-5
70.254997	5.972630E-5
70.260002	6.044097E-5
70.269997	6.129523E-5
70.275002	6.214948E-5
70.285004	6.357464E-5
70.290001	6.398896E-5
70.300003	6.483903E-5
70.305000	6.595964E-5
70.315002	6.703800E-5
70.320000	6.757083E-5
70.330002	6.895792E-5
70.334999	7.019693E-5
70.345001	7.130497E-5
70.349998	7.170241E-5
70.360001	7.355888E-5
70.364998	7.457810E-5
70.375000	7.637532E-5
70.379997	7.633306E-5
70.389999	7.787230E-5
70.394997	7.932284E-5
70.404999	8.075219E-5
70.410004	8.073531E-5
70.419998	8.261285E-5
70.425003	8.343323E-5
70.434998	8.465967E-5
70.440002	8.610170E-5
70.449997	8.802582E-5
70.455002	8.829217E-5
70.464996	8.992874E-5
70.470001	9.155693E-5
70.480003	9.327801E-5
70.485001	9.378965E-5
70.495003	9.555311E-5
70.500000	9.667373E-5
70.510002	9.843300E-5
70.514999	9.959587E-5
70.525002	0.000101
70.529999	0.000102
70.540001	0.000104
70.544998	0.000105
70.555000	0.000107
70.559998	0.000108
70.570000	0.000110
70.574997	0.000111
70.584999	0.000113
70.589996	0.000115
70.599998	0.000117
70.605003	0.000118
70.614998	0.000120
70.620003	0.000121
70.629997	0.000124
70.635002	0.000124
70.644997	0.000126
70.650002	0.000128
70.660004	0.000130
70.665001	0.000131
70.675003	0.000133
70.680000	0.000135
70.690002	0.000137
70.695000	0.000138
70.705002	0.000140
70.709999	0.000142
70.720001	0.000145
70.724998	0.000146
70.735001	0.000149
70.739998	0.000150
70.750000	0.000152
70.754997	0.000154
70.764999	0.000156
70.769997	0.000158
70.779999	0.000159
70.785004	0.000162
70.794998	0.000165
70.800003	0.000165
70.809998	0.000168
70.815002	0.000170
70.824997	0.000173
70.830002	0.000174
70.839996	0.000176
70.845001	0.000178
70.855003	0.000181
70.860001	0.000183
70.870003	0.000185
70.875000	0.000187
70.885002	0.000190
70.889999	0.000191
70.900002	0.000193
70.904999	0.000195
70.915001	0.000197
70.919998	0.000200
70.930000	0.000202
70.934998	0.000204
70.945000	0.000206
70.949997	0.000208
70.959999	0.000211
70.964996	0.000212
70.974998	0.000215
70.980003	0.000217
70.989998	0.000219
70.995003	0.000220
71.004997	0.000224
71.010002	0.000225
71.019997	0.000227
71.025002	0.000229
71.035004	0.000231
71.040001	0.000233
71.050003	0.000236
71.055000	0.000237
71.065002	0.000239
71.070000	0.000241
71.080002	0.000243
71.084999	0.000244
71.095001	0.000246
71.099998	0.000247
71.110001	0.000250
71.114998	0.000250
71.125000	0.000252
71.129997	0.000254
71.139999	0.000256
71.144997	0.000256
71.154999	0.000258
71.160004	0.000259
71.169998	0.000261
71.175003	0.000261
71.184998	0.000263
71.190002	0.000264
71.199997	0.000266
71.205002	0.000266
71.214996	0.000268
71.220001	0.000268
71.230003	0.000269
71.235001	0.000270
71.245003	0.000271
71.250000	0.000272
71.260002	0.000273
71.264999	0.000273
71.275002	0.000275
71.279999	0.000275
71.290001	0.000276
71.294998	0.000277
71.305000	0.000278
71.309998	0.000278
71.320000	0.000280
71.324997	0.000280
71.334999	0.000281
71.339996	0.000281
71.349998	0.000282
71.355003	0.000283
71.364998	0.000284
71.370003	0.000284
71.379997	0.000285
71.385002	0.000285
71.394997	0.000286
71.400002	0.000287
71.410004	0.000288
71.415001	0.000288
71.425003	0.000289
71.430000	0.000289
71.440002	0.000290
71.445000	0.000290
71.455002	0.000291
71.459999	0.000291
71.470001	0.000292
71.474998	0.000293
71.485001	0.000293
71.489998	0.000294
71.500000	0.000295
71.504997	0.000295
71.514999	0.000296
71.519997	0.000296
71.529999	0.000297
71.535004	0.000297
71.544998	0.000298
71.550003	0.000298
71.559998	0.000299
71.565002	0.000299
71.574997	0.000300
71.580002	0.000300
71.589996	0.000301
71.595001	0.000301
71.605003	0.000302
71.610001	0.000303
71.620003	0.000303
71.625000	0.000304
71.635002	0.000304
71.639999	0.000305
71.650002	0.000305
71.654999	0.000305
71.665001	0.000306
71.669998	0.000307
71.680000	0.000307
71.684998	0.000307
71.695000	0.000308
71.699997	0.000308
71.709999	0.000309
71.714996	0.000309
71.724998	0.000310
71.730003	0.000310
71.739998	0.000311
71.745003	0.000311
71.754997	0.000312
71.760002	0.000312
71.769997	0.000313
71.775002	0.000313
71.785004	0.000314
71.790001	0.000314
71.800003	0.000314
71.805000	0.000314
71.815002	0.000315
71.820000	0.000316
71.830002	0.000316
71.834999	0.000316
71.845001	0.000317
71.849998	0.000317
71.860001	0.000318
71.864998	0.000318
71.875000	0.000318
71.879997	0.000319
71.889999	0.000319
71.894997	0.000320
71.904999	0.000320
71.910004	0.000320
71.919998	0.000321
71.925003	0.000321
71.934998	0.000322
71.940002	0.000322
71.949997	0.000322
71.955002	0.000323
71.964996	0.000323
71.970001	0.000323
71.980003	0.000324
71.985001	0.000324
71.995003	0.000325
72.000000	0.000325
72.010002	0.000325
72.014999	0.000326
72.025002	0.000326
72.029999	0.000326
72.040001	0.000327
72.044998	0.000327
72.055000	0.000328
72.059998	0.000328
72.070000	0.000328
72.074997	0.000329
72.084999	0.000329
72.089996	0.000329
72.099998	0.000330
72.105003	0.000330
72.114998	0.000330
72.120003	0.000330
72.129997	0.000331
72.135002	0.000331
72.144997	0.000332
72.150002	0.000332
72.160004	0.000332
72.165001	0.000332
72.175003	0.000333
72.180000	0.000333
72.190002	0.000334
72.195000	0.000334
72.205002	0.000334
72.209999	0.000334
72.220001	0.000335
72.224998	0.000335
72.235001	0.000335
72.239998	0.000336
72.250000	0.000336
72.254997	0.000336
72.264999	0.000337
72.269997	0.000337
72.279999	0.000337
72.285004	0.000337
72.294998	0.000338
72.300003	0.000338
72.309998	0.000339
72.315002	0.000339
72.324997	0.000339
72.334999	0.000339
72.339996	0.000340
72.349998	0.000340
72.355003	0.000340
72.364998	0.000340
72.370003	0.000341
72.379997	0.000341
72.385002	0.000341
72.394997	0.000342
72.400002	0.000342
72.410004	0.000342
72.415001	0.000342
72.425003	0.000343
72.430000	0.000343
72.440002	0.000343
72.445000	0.000343
72.455002	0.000344
72.459999	0.000344
72.470001	0.000344
72.474998	0.000345
72.485001	0.000345
72.489998	0.000345
72.500000	0.000345
72.504997	0.000346
72.514999	0.000346
72.519997	0.000346
72.529999	0.000346
72.535004	0.000347
72.544998	0.000347
72.550003	0.000347
72.559998	0.000347
72.565002	0.000348
72.574997	0.000348
72.580002	0.000348
72.589996	0.000348
72.595001	0.000349
72.605003	0.000349
72.610001	0.000349
72.620003	0.000349
72.625000	0.000349
72.635002	0.000350
72.639999	0.000350
72.650002	0.000350
72.654999	0.000350
72.665001	0.000351
72.669998	0.000351
72.680000	0.000351
72.684998	0.000351
72.695000	0.000352
72.699997	0.000352
72.709999	0.000352
72.714996	0.000352
72.724998	0.000353
72.730003	0.000353
72.739998	0.000353
72.745003	0.000353
72.754997	0.000353
72.760002	0.000354
72.769997	0.000354
72.775002	0.000354
72.785004	0.000354
72.790001	0.000355
72.800003	0.000355
72.805000	0.000355
72.815002	0.000355
72.820000	0.000355
72.830002	0.000356
72.834999	0.000356
72.845001	0.000356
72.849998	0.000356
72.860001	0.000356
72.864998	0.000356
72.875000	0.000357
72.879997	0.000357
72.889999	0.000357
72.894997	0.000357
72.904999	0.000358
72.910004	0.000358
72.919998	0.000358
72.925003	0.000358
72.934998	0.000358
72.940002	0.000358
72.949997	0.000359
72.955002	0.000359
72.964996	0.000359
72.970001	0.000359
72.980003	0.000360
72.985001	0.000360
72.995003	0.000360
73.000000	0.000360
73.010002	0.000360
73.014999	0.000360
73.025002	0.000361
73.029999	0.000361
73.040001	0.000361
73.044998	0.000361
73.055000	0.000361
73.059998	0.000362
73.070000	0.000362
73.074997	0.000362
73.084999	0.000362
73.089996	0.000362
73.099998	0.000362
73.105003	0.000363
73.114998	0.000363
73.120003	0.000363
73.129997	0.000363
73.135002	0.000363
73.144997	0.000364
73.150002	0.000364
73.160004	0.000364
73.165001	0.000364
73.175003	0.000364
73.180000	0.000364
73.190002	0.000365
73.195000	0.000365
73.205002	0.000365
73.209999	0.000365
73.220001	0.000365
73.224998	0.000365
73.235001	0.000366
73.239998	0.000366
73.250000	0.000366
73.254997	0.000366
73.264999	0.000366
73.269997	0.000366
73.279999	0.000367
73.285004	0.000367
73.294998	0.000367
73.300003	0.000367
73.309998	0.000367
73.315002	0.000367
73.324997	0.000368
73.330002	0.000368
73.339996	0.000368
73.345001	0.000368
73.355003	0.000368
73.360001	0.000368
73.370003	0.000369
73.375000	0.000369
73.385002	0.000369
73.389999	0.000369
73.400002	0.000369
73.404999	0.000369
73.415001	0.000369
73.419998	0.000370
73.430000	0.000370
73.434998	0.000370
73.445000	0.000370
73.449997	0.000370
73.459999	0.000371
73.464996	0.000370
73.474998	0.000371
73.480003	0.000371
73.489998	0.000371
73.495003	0.000371
73.504997	0.000371
73.510002	0.000371
73.519997	0.000372
73.525002	0.000372
73.535004	0.000372
73.540001	0.000372
73.550003	0.000372
73.555000	0.000372
73.565002	0.000372
73.570000	0.000372
73.580002	0.000373
73.584999	0.000373
73.595001	0.000373
73.599998	0.000373
73.610001	0.000373
73.614998	0.000373
73.625000	0.000374
73.629997	0.000374
73.639999	0.000374
73.644997	0.000374
73.654999	0.000374
73.660004	0.000374
73.669998	0.000374
73.675003	0.000375
73.684998	0.000375
73.690002	0.000375
73.699997	0.000375
73.705002	0.000375
73.714996	0.000375
73.720001	0.000375
73.730003	0.000375
73.735001	0.000376
73.745003	0.000376
73.750000	0.000376
73.760002	0.000376
73.764999	0.000376
73.775002	0.000376
73.779999	0.000376
73.790001	0.000377
73.794998	0.000377
73.805000	0.000377
73.809998	0.000377
73.820000	0.000377
73.824997	0.000377
73.834999	0.000377
73.839996	0.000377
73.849998	0.000377
73.855003	0.000378
73.864998	0.000378
73.870003	0.000378
73.879997	0.000378
73.885002	0.000378
73.894997	0.000378
73.900002	0.000378
73.910004	0.000379
73.915001	0.000379
73.925003	0.000379
73.930000	0.000379
73.940002	0.000379
73.945000	0.000379
73.955002	0.000379
73.959999	0.000379
73.970001	0.000379
73.974998	0.000379
73.985001	0.000380
73.989998	0.000380
74.000000	0.000380
74.004997	0.000380
74.014999	0.000380
74.019997	0.000380
74.029999	0.000380
74.035004	0.000380
74.044998	0.000381
74.050003	0.000381
74.059998	0.000381
74.065002	0.000381
74.074997	0.000381
74.080002	0.000381
74.089996	0.000381
74.095001	0.000381
74.105003	0.000381
74.110001	0.000382
74.120003	0.000382
74.125000	0.000382
74.135002	0.000382
74.139999	0.000382
74.150002	0.000382
74.154999	0.000382
74.165001	0.000382
74.169998	0.000382
74.180000	0.000383
74.184998	0.000383
74.195000	0.000383
74.199997	0.000383
74.209999	0.000383
74.214996	0.000383
74.224998	0.000383
74.230003	0.000383
74.239998	0.000383
74.245003	0.000384
74.254997	0.000384
74.260002	0.000384
74.269997	0.000384
74.275002	0.000384
74.285004	0.000384
74.290001	0.000384
74.300003	0.000384
74.305000	0.000384
74.315002	0.000384
74.320000	0.000384
74.330002	0.000385
74.334999	0.000385
74.345001	0.000385
74.349998	0.000385
74.360001	0.000385
74.364998	0.000385
74.375000	0.000385
74.379997	0.000385
74.389999	0.000386
74.394997	0.000385
74.404999	0.000386
74.410004	0.000386
74.419998	0.000386
74.425003	0.000386
74.434998	0.000386
74.440002	0.000386
74.449997	0.000386
74.455002	0.000386
74.464996	0.000386
74.470001	0.000386
74.480003	0.000387
74.485001	0.000387
74.495003	0.000387
74.500000	0.000387
74.510002	0.000387
74.514999	0.000387
74.525002	0.000387
74.529999	0.000387
74.540001	0.000387
74.544998	0.000387
74.555000	0.000387
74.559998	0.000388
74.570000	0.000388
74.574997	0.000388
74.584999	0.000388
74.589996	0.000388
74.599998	0.000388
74.605003	0.000388
74.614998	0.000388
74.620003	0.000388
74.629997	0.000388
74.635002	0.000388
74.644997	0.000388
74.650002	0.000389
74.660004	0.000389
74.665001	0.000389
74.675003	0.000389
74.680000	0.000389
74.690002	0.000389
74.695000	0.000389
74.705002	0.000389
74.709999	0.000389
74.720001	0.000389
74.724998	0.000389
74.735001	0.000390
74.739998	0.000390
74.750000	0.000390
74.754997	0.000390
74.764999	0.000390
74.769997	0.000390
74.779999	0.000390
74.785004	0.000390
74.794998	0.000390
74.800003	0.000390
74.809998	0.000390
74.815002	0.000390
74.824997	0.000390
74.830002	0.000391
74.839996	0.000391
74.845001	0.000391
74.855003	0.000391
74.860001	0.000391
74.870003	0.000391
74.875000	0.000391
74.885002	0.000391
74.889999	0.000391
74.900002	0.000391
74.910004	0.000391
74.915001	0.000391
74.925003	0.000392
74.930000	0.000392
74.940002	0.000392
74.945000	0.000392
74.955002	0.000392
74.959999	0.000392
74.970001	0.000392
74.974998	0.000392
74.985001	0.000392
74.989998	0.000392
75.000000	0.000392
75.004997	0.000392
